Stress;Strain
1550028.571;0.000338994
1594526.857;0.000354978
1639025.143;0.000370296
1683523.429;0.000384948
1728021.714;0.000398934
1772520;0.000413586
1817018.286;0.000428238
1861516.571;0.00044289
1906014.857;0.000458874
1950513.143;0.000474858
1995011.429;0.000490176
2039509.714;0.000506826
2084008;0.00052281
2128506.286;0.000540792
2173004.571;0.000558108
2217502.857;0.000575424
2262001.143;0.000592074
2306499.429;0.000607392
2350997.714;0.000621378
2395496;0.000635364
2439994.286;0.000648684
2484492.571;0.00066267
2528990.857;0.00067599
2573489.143;0.00068931
2617987.429;0.000703962
2662485.714;0.000718614
2706984;0.000733266
2751482.286;0.000749916
2795980.571;0.000767232
2840478.857;0.000785214
2884977.143;0.00080253
2929475.429;0.000819846
2973973.714;0.000837828
3018472;0.000854478
3062970.286;0.000869796
3107468.571;0.00088578
3151966.857;0.00090243
3196465.143;0.000920412
3240963.429;0.000940392
3285461.714;0.00095904
3329960;0.000979686
3374458.286;0.00100233
3418956.571;0.001026306
3463454.857;0.001049616
3507953.143;0.001072926
3552451.429;0.001096236
3596949.714;0.001119546
3641448;0.001141524
3685946.286;0.001163502
3730444.571;0.001184814
3774942.857;0.001204128
3819441.143;0.001224774
3863939.429;0.001244754
3908437.714;0.001266066
3952936;0.001290042
3997434.286;0.001313352
4041932.571;0.001337994
4086430.857;0.00136197
4130929.143;0.001387278
4175427.429;0.001413918
4219925.714;0.001439892
4264424;0.0014652
4308922.286;0.00149184
4353420.571;0.001516482
4397918.857;0.001541124
4442417.143;0.001565766
4486915.429;0.001592406
4531413.714;0.001619712
4575912;0.001647684
4620410.286;0.001677654
4664908.571;0.001706292
4709406.857;0.0017316
4753905.143;0.001754244
4798403.429;0.001776222
4842901.714;0.001796202
4887400;0.00181818
4931898.286;0.00184149
4976396.571;0.0018648
5020894.857;0.00188811
5065393.143;0.001912086
5109891.429;0.001934064
5154389.714;0.00195471
5198888;0.001974024
5243386.286;0.00199134
5287884.571;0.002005992
5332382.857;0.002019978
5376881.143;0.002035296
5421379.429;0.002049948
5465877.714;0.002066598
5510376;0.002082582
5554874.286;0.002098566
5599372.571;0.002113884
5643870.857;0.002130534
5688369.143;0.002147184
5732867.429;0.002163834
5777365.714;0.002181816
5821864;0.002200464
5866362.286;0.002219112
5910860.571;0.002235096
5955358.857;0.002250414
5999857.143;0.002265066
6044355.429;0.002279052
6088853.714;0.002291706
6133352;0.002305026
6177850.286;0.002319012
6222348.571;0.002331666
6266846.857;0.002344986
6311345.143;0.002358972
6355843.429;0.00237429
6400341.714;0.002391606
6444840;0.002409588
6489338.286;0.002428236
6533836.571;0.002446218
6578334.857;0.002464866
6622833.143;0.002482848
6667331.429;0.00250083
6711829.714;0.002519478
6756328;0.002536794
6800826.286;0.002556108
6845324.571;0.002576754
6889822.857;0.002598066
6934321.143;0.002618712
6978819.429;0.00264069
7023317.714;0.002662668
7067816;0.002684646
7112314.286;0.002706624
7156812.571;0.0027306
7201310.857;0.002755242
7245809.143;0.002779218
7290307.429;0.002802528
7334805.714;0.00282384
7379304;0.002843154
7423802.286;0.002861802
7468300.571;0.00288045
7512798.857;0.002901096
7557297.143;0.002923074
7601795.429;0.002945718
7646293.714;0.002969028
7690792;0.00299367
7735290.286;0.003017646
7779788.571;0.003041622
7824286.857;0.00306693
7868785.143;0.003092904
7913283.429;0.003118212
7957781.714;0.003144186
8002280;0.003169494
8046778.286;0.00319347
8091276.571;0.003218778
8135774.857;0.003247416
8180273.143;0.003274722
8224771.429;0.003301362
8269269.714;0.003328002
8313768;0.00335331
8358266.286;0.00337662
8402764.571;0.003397932
8447262.857;0.00341991
8491761.143;0.003441888
8536259.429;0.003463866
8580757.714;0.003487176
8625256;0.00350982
8669754.286;0.003532464
8714252.571;0.003555108
8758750.857;0.00357642
8803249.143;0.003597066
8847747.429;0.003617046
8892245.714;0.003637026
8936744;0.003655008
8981242.286;0.003672324
9025740.571;0.00368964
9070238.857;0.003707622
9114737.143;0.003723606
9159235.429;0.003740922
9203733.714;0.003756906
9248232;0.003773556
9292730.286;0.003790206
9337228.571;0.003807522
9381726.857;0.003824838
9426225.143;0.00384282
9470723.429;0.003861468
9515221.714;0.003880782
9559720;0.00389943
9604218.286;0.003916746
9648716.571;0.00393273
9693214.857;0.003947382
9737713.143;0.003960702
9782211.429;0.00397269
9826709.714;0.003984678
9871208;0.003996666
9915706.286;0.004009986
9960204.571;0.004025304
10004702.86;0.004041288
10049201.14;0.004057938
10093699.43;0.004074588
10138197.71;0.004090572
10182696;0.004107888
10227194.29;0.004126536
10271692.57;0.004144518
10316190.86;0.004163166
10360689.14;0.004181148
10405187.43;0.00419913
10449685.71;0.00421578
10494184;0.004235094
10538682.29;0.004253742
10583180.57;0.004273722
10627678.86;0.00429237
10672177.14;0.004311684
10716675.43;0.004330998
10761173.71;0.004349646
10805672;0.004367628
10850170.29;0.004386942
10894668.57;0.004406922
10939166.86;0.0044289
10983665.14;0.004451544
11028163.43;0.004473522
11072661.71;0.004494834
11117160;0.004516146
11161658.29;0.004536792
11206156.57;0.004557438
11250654.86;0.004576752
11295153.14;0.004596732
11339651.43;0.00461871
11384149.71;0.004642686
11428648;0.004665996
11473146.29;0.004689306
11517644.57;0.00471195
11562142.86;0.00473526
11606641.14;0.004757904
11651139.43;0.004779882
11695637.71;0.00480186
11740136;0.004824504
11784634.29;0.004847148
11829132.57;0.00487179
11873630.86;0.00489843
11918129.14;0.00492507
11962627.43;0.004951044
12007125.71;0.00497835
12051624;0.005005656
12096122.29;0.005032296
12140620.57;0.00505494
12185118.86;0.005076918
12229617.14;0.005099562
12274115.43;0.005122206
12318613.71;0.005144184
12363112;0.005165496
12407610.29;0.005187474
12452108.57;0.005209452
12496606.86;0.00523143
12541105.14;0.005252742
12585603.43;0.005272722
12630101.71;0.005292702
12674600;0.005312016
12719098.29;0.005329332
12763596.57;0.005346648
12808094.86;0.005361966
12852593.14;0.005377284
12897091.43;0.005393934
12941589.71;0.005410584
12986088;0.005425902
13030586.29;0.005441886
13075084.57;0.005457204
13119582.86;0.00547452
13164081.14;0.005492502
13208579.43;0.00551115
13253077.71;0.005529132
13297576;0.005547114
13342074.29;0.005565096
13386572.57;0.005581746
13431070.86;0.00559773
13475569.14;0.005611716
13520067.43;0.00562437
13564565.71;0.005637024
13609064;0.005650344
13653562.29;0.005664996
13698060.57;0.005679648
13742558.86;0.0056943
13787057.14;0.005710284
13831555.43;0.005726934
13876053.71;0.00574425
13920552;0.005762232
13965050.29;0.00578088
14009548.57;0.00580086
14054046.86;0.00582084
14098545.14;0.00583749
14143043.43;0.005855472
14187541.71;0.005873454
14232040;0.00589077
14276538.29;0.005906754
14321036.57;0.005922738
14365534.86;0.005938722
14410033.14;0.00595737
14454531.43;0.005976018
14499029.71;0.005995332
14543528;0.006016644
14588026.29;0.00604062
14632524.57;0.006064596
14677022.86;0.006087906
14721521.14;0.006111882
14766019.43;0.006134526
14810517.71;0.006154506
14855016;0.006174486
14899514.29;0.006194466
14944012.57;0.00621378
14988510.86;0.006233094
15033009.14;0.00625374
15077507.43;0.006275052
15122005.71;0.00629703
15166504;0.006319674
15211002.29;0.006344982
15255500.57;0.00637029
15299998.86;0.006394266
15344497.14;0.006418908
15388995.43;0.006442218
15433493.71;0.006464862
15477992;0.006487506
15522490.29;0.006511482
15566988.57;0.006536124
15611486.86;0.006561432
15655985.14;0.006588072
15700483.43;0.006614712
15744981.71;0.006642018
15789480;0.006671322
15833978.29;0.006701292
15878476.57;0.006730596
15922974.86;0.00675657
15967473.14;0.006781212
16011971.43;0.006805854
16056469.71;0.006831162
16100968;0.006855138
16145466.29;0.006878448
16189964.57;0.00689976
16234462.86;0.00691974
16278961.14;0.006941052
16323459.43;0.006961698
16367957.71;0.006980346
16412456;0.006998328
16456954.29;0.007014312
16501452.57;0.007031628
16545950.86;0.007048278
16590449.14;0.007065594
16634947.43;0.007081578
16679445.71;0.007096896
16723944;0.00711288
16768442.29;0.007128864
16812940.57;0.007144848
16857438.86;0.007161498
16901937.14;0.007178814
16946435.43;0.007198128
16990933.71;0.00721611
17035432;0.00723276
17079930.29;0.007248744
17124428.57;0.007263396
17168926.86;0.007276716
17213425.14;0.007290036
17257923.43;0.00730269
17302421.71;0.007314012
17346920;0.007325334
17391418.29;0.00733932
17435916.57;0.007353306
17480414.86;0.007368624
17524913.14;0.007385274
17569411.43;0.007401924
17613909.71;0.007419906
17658408;0.007438554
17702906.29;0.007457202
17747404.57;0.00747585
17791902.86;0.007493832
17836401.14;0.007511814
17880899.43;0.007528464
17925397.71;0.007546446
17969896;0.007563762
18014394.29;0.00758241
18058892.57;0.00760239
18103390.86;0.007623702
18147889.14;0.007645014
18192387.43;0.007666992
18236885.71;0.007690302
18281384;0.007714278
18325882.29;0.007737588
18370380.57;0.00776223
18414878.86;0.007786872
18459377.14;0.007810848
18503875.43;0.007834824
18548373.71;0.007856802
18592872;0.007876116
18637370.29;0.007896096
18681868.57;0.007917408
18726366.86;0.007939386
18770865.14;0.007961364
18815363.43;0.007984674
18859861.71;0.008007984
18904360;0.008031294
18948858.29;0.008054604
18993356.57;0.008077248
19037854.86;0.008099892
19082353.14;0.008123202
19126851.43;0.008146512
19171349.71;0.008169822
19215848;0.008192466
19260346.29;0.008217774
19304844.57;0.008243748
19349342.86;0.008270388
19393841.14;0.008294364
19438339.43;0.008320338
19482837.71;0.008346978
19527336;0.008374284
19571834.29;0.008399592
19616332.57;0.008422902
19660830.86;0.008445546
19705329.14;0.00846819
19749827.43;0.008492832
19794325.71;0.008517474
19838824;0.008540784
19883322.29;0.008562096
19927820.57;0.00858141
19972318.86;0.008600724
20016817.14;0.008620038
20061315.43;0.008638686
20105813.71;0.008655336
20150312;0.008671986
20194810.29;0.008689302
20239308.57;0.00870462
20283806.86;0.008719938
20328305.14;0.008735922
20372803.43;0.008752572
20417301.71;0.008769888
20461800;0.008788536
20506298.29;0.008806518
20550796.57;0.008825166
20595294.86;0.008842482
20639793.14;0.008859798
20684291.43;0.008878446
20728789.71;0.008896428
20773288;0.008912412
20817786.29;0.00892773
20862284.57;0.008941716
20906782.86;0.008955702
20951281.14;0.00896769
20995779.43;0.008979678
21040277.71;0.008992332
21084776;0.009006984
21129274.29;0.009022968
21173772.57;0.009038286
21218270.86;0.009055602
21262769.14;0.009072918
21307267.43;0.009091566
21351765.71;0.009122202
