Stress;Strain
6.37374E+11;0.000094572
6.57879E+11;0.0000999
6.76638E+11;0.000104562
6.87108E+11;0.000111222
7.00632E+11;0.000117882
7.1372E+11;0.000122544
7.25062E+11;0.000129204
7.40768E+11;0.000135864
7.54292E+11;0.000141858
7.72178E+11;0.000147186
7.90501E+11;0.00015318
8.01844E+11;0.00015984
8.14496E+11;0.000165834
8.3151E+11;0.000171828
8.51142E+11;0.000177156
87208190476;0.000182484
8.86042E+11;0.000187812
8.97385E+11;0.000193806
9.10909E+11;0.000200466
9.22688E+11;0.000207792
9322857143;0.00021312
94493714286;0.00021978
9.65441E+11;0.00022644
9.85073E+11;0.000232434
1.00034E+12;0.000239094
1.0143E+12;0.000245088
1.03132E+12;0.000250416
1.04877E+12;0.000255744
1.06011E+12;0.000261072
1.0732E+12;0.000265734
1.08803E+12;0.000270396
1.09894E+12;0.000275724
1.10853E+12;0.000280386
1.11726E+12;0.00028638
1.12817E+12;0.000292374
1.13994E+12;0.000298368
1.14954E+12;0.000305028
1.16263E+11;0.000311688
1.17528E+11;0.000318348
1.18881E+12;0.000325674
1.21193E+12;0.000333
1.23243E+12;0.00033966
1.25075E+12;0.00034632
1.27126E+12;0.00035298
1.28522E+12;0.000358974
1.29045E+12;0.000365634
1.2922E+12;0.00037296
1.32056E+11;0.000380286
1.33801E+12;0.000386946
1.35066E+12;0.000393606
1.37203E+12;0.0003996
1.38949E+12;0.00040626
1.40475E+12;0.000413586
1.42395E+12;0.000420246
1.43965E+12;0.00042624
1.45711E+12;0.000433566
1.47368E+12;0.00043956
1.48197E+12;0.00044622
1.4907E+12;0.000454212
1.50073E+12;0.000462204
1.51077E+12;0.00046953
1.52822E+12;0.000477522
1.55003E+11;0.000484182
1.56922E+12;0.000490176
1.58275E+12;0.00049617
1.59758E+12;0.000502164
1.61154E+11;0.000508824
1.62027E+12;0.000514152
1.6303E+12;0.000520812
1.6495E+12;0.00052614
1.66258E+12;0.000530136
1.66913E+12;0.000534132
1.68047E+12;0.000538794
1.67633E+12;0.000543456
1.68505E+12;0.00054945
1.69072E+11;0.000554112
16970476190;0.00055944
1.71406E+12;0.000565434
1.72759E+12;0.000571428
1.74198E+12;0.000578088
1.75376E+12;0.000584082
1.76598E+12;0.00058941
1.77906E+12;0.000595404
1.79215E+12;0.000601398
1.80044E+12;0.000608058
1.8144E+12;0.000614718
1.83272E+12;0.000622044
1.84974E+12;0.000630036
1.86064E+12;0.000638028
1.86806E+12;0.00064602
1.88726E+12;0.000653346
1.913E+11;0.000662004
1.93568E+11;0.000670662
1.9527E+11;0.000678654
1.96447E+11;0.00068598
1.97974E+11;0.000694638
20002476190;0.00070263
2.01988E+11;0.000710622
2.0382E+11;0.000718614
2.0574E+11;0.000726606
2.07572E+11;0.0007326
20953523810;0.00073926
2.11018E+11;0.00074592
2.11586E+11;0.00075258
2.1176E+11;0.000759906
2.13898E+11;0.000767232
2.15338E+11;0.00077589
2.16952E+11;0.000783882
2.18478E+11;0.000790542
2.20224E+11;0.000797202
2.22579E+11;0.000803196
2.24237E+11;0.000809856
2.25066E+11;0.000816516
2.24957E+11;0.00082251
2.25764E+11;0.00082917
2.27553E+11;0.00083583
2.28731E+11;0.000843156
2.29778E+11;0.000851814
2.30868E+11;0.000860472
2.3257E+11;0.000868464
2.34009E+11;0.000876456
2.34795E+11;0.000883782
2.36103E+11;0.000891108
2.38066E+11;0.000898434
2.39768E+11;0.00090576
2.41251E+11;0.000911754
2.42822E+11;0.00091908
2.44436E+11;0.000927072
2.4509E+11;0.000937728
2.4509E+11;0.000948384
24753333333;0.000960372
2.49627E+11;0.000969696
2.53816E+11;0.00097902
2.55212E+11;0.00098568
2.57873E+11;0.000991674
2.59661E+11;0.000997668
2.61014E+11;0.001004328
2.62541E+11;0.001011654
2.63151E+11;0.00101898
2.63064E+11;0.001026306
2.63871E+11;0.001032966
2.65856E+11;0.00103896
26747047619;0.001043622
2.68648E+11;0.00104895
2.69303E+11;0.001053612
2.69346E+11;0.001056942
2.69979E+11;0.001060272
2.70372E+11;0.001064934
2.70502E+11;0.001069596
2.70502E+11;0.001074924
2.70164E+11;0.001080252
2.70339E+11;0.00108558
2.70524E+11;0.001091574
2.70644E+11;0.001097568
2.72313E+11;0.001103562
2.73622E+11;0.001109556
2.74451E+11;0.00111555
2.75192E+11;0.001120878
2.76021E+11;0.001126872
2.76894E+11;0.001134198
2.77722E+11;0.001141524
2.78595E+11;0.00114885
2.79555E+11;0.001157508
2.80558E+11;0.001164834
2.81823E+11;0.001172826
2.83263E+11;0.001181484
2.84834E+11;0.001189476
2.86753E+11;0.0011988
2.8876E+11;0.001207458
2.902E+11;0.00121545
2.91639E+11;0.001222776
2.93515E+11;0.001230768
2.94911E+11;0.00123876
29595809524;0.001246752
29731047619;0.001254744
2.98445E+11;0.001262736
2.99492E+11;0.001269396
3.01499E+11;0.001276056
3.03462E+11;0.001283382
3.04422E+11;0.001289376
3.04989E+11;0.001296036
3.0488E+11;0.001304028
3.05381E+11;0.00131202
3.06995E+11;0.001319346
3.08566E+11;0.001326672
3.09744E+11;0.001333998
3.11053E+11;0.00134199
3.1258E+11;0.001349316
3.13321E+11;0.001355976
3.1415E+11;0.001361304
3.15328E+11;0.001367298
3.16026E+11;0.001373958
31589523810;0.001379286
3.16593E+11;0.001384614
3.17095E+11;0.001390608
31768380952;0.001397268
3.18338E+11;0.001404594
3.18949E+11;0.00141192
3.20999E+11;0.00141858
32222095238;0.00142524
3.23224E+11;0.001432566
3.24097E+11;0.001437894
3.25013E+11;0.001444554
3.26191E+11;0.00145188
3.27063E+11;0.001457208
3.26823E+11;0.001463868
3.27478E+11;0.00146853
3.28198E+11;0.00147519
32946285714;0.00148185
3.29397E+11;0.00148851
3.31164E+11;0.001495836
3.32211E+11;0.001502496
3.32691E+11;0.001510488
3.33782E+11;0.001517148
3.35396E+11;0.001523808
3.36399E+11;0.0015318
3.36094E+11;0.001539792
3.36792E+11;0.001547784
3.37512E+11;0.001555776
3.39933E+11;0.001563102
3.41111E+11;0.001571094
3.42027E+11;0.001579752
3.43467E+11;0.001587744
3.45081E+11;0.001596402
3.46128E+11;0.001603728
3.47044E+11;0.001610388
3.48746E+11;0.001617048
3.50098E+11;0.001621044
35070857143;0.001626372
3.5084E+11;0.0016317
3.51232E+11;0.001637028
3514285.714;0.001642356
3.51581E+11;0.001645686
3.51025E+11;0.001649682
3.51287E+11;0.00165501
3.51363E+11;0.001661004
3514285.714;0.001666998
3.51385E+11;0.00167166
3.51374E+11;0.001676988
3.5145E+11;0.00168165
3.51559E+11;0.001687644
3.51723E+11;0.001693638
3.52214E+11;0.00170163
3.52585E+11;0.00170829
3.53937E+11;0.001716282
3.55115E+11;0.001725606
3.56075E+11;0.00173493
3.57122E+11;0.001742256
3.58692E+11;0.001750248
3.59957E+11;0.001759572
3.61222E+11;0.001767564
3.62444E+11;0.001774224
3.63317E+11;0.001779552
3.64494E+11;0.00178488
3.65411E+11;0.00179154
3.66239E+11;0.001798866
3.66087E+11;0.00180486
3.66632E+11;0.001810188
3.67112E+11;0.001815516
3.67439E+11;0.001820844
3.67614E+11;0.001826172
36794095238;0.001830168
3.68246E+11;0.001835496
3.68552E+11;0.001839492
3.69097E+11;0.001844154
3.68922E+11;0.001849482
36849714286;0.001855476
3.68541E+11;0.00186147
3.68814E+11;0.001866132
3.69817E+11;0.001870794
3.69097E+11;0.001876788
3.69904E+11;0.001882116
3702095238;0.001886778
3.70558E+11;0.001893438
37088571429;0.001900098
3.7106E+11;0.001906758
3.71256E+11;0.001912752
3.7154E+11;0.00191808
3.73132E+11;0.001923408
3.74005E+11;0.001930068
37378666667;0.001936728
3.74528E+11;0.001943388
3.75968E+11;0.001950048
3.75794E+11;0.001955376
3.76404E+11;0.001960704
3.76993E+11;0.001966032
3.77473E+11;0.001972692
37788761905;0.001978686
3783238095;0.00198468
3.78891E+11;0.00199134
3.80287E+11;0.001997334
3.80025E+11;0.002003328
3.80789E+11;0.002009988
3.81247E+11;0.002017314
3.81683E+11;0.00202464
3.81858E+11;0.002030634
3.82032E+11;0.002037294
3.83559E+11;0.002042622
3.85217E+11;0.002048616
3.85784E+11;0.00205461
3.85239E+11;0.00206127
3.84257E+11;0.002068596
3.84846E+11;0.002075922
3.85915E+11;0.002083914
38739809524;0.00209124
3.88183E+11;0.002099232
3.88052E+11;0.002107224
3.88925E+11;0.002115216
3.90714E+11;0.002123208
3.91237E+11;0.002129868
3.91434E+11;0.002136528
3.93811E+11;0.002143188
39464000000;0.00214785
3.94531E+11;0.002152512
3.96385E+11;0.002157174
3.97039E+11;0.002161836
3.96516E+11;0.002167164
3.96625E+11;0.002172492
3.96298E+11;0.00217782
3.96047E+11;0.002183148
3.96167E+11;0.002188476
3.96309E+11;0.002193804
3.96265E+11;0.002199132
3.96243E+11;0.00220446
39690857143;0.002210454
3.97061E+11;0.002216448
3.97388E+11;0.002223108
3.97694E+11;0.00222777
3.98217E+11;0.002233098
3.98654E+11;0.002240424
3.98915E+11;0.002246418
39937333333;0.002253078
3.99831E+11;0.002259738
4.01664E+11;0.002267064
4.02056E+11;0.00227439
4.02013E+11;0.002282382
4.02667E+11;0.002290374
4.04674E+11;0.002299032
4.05808E+11;0.00230769
4.07073E+11;0.002315016
4.0908E+11;0.002321676
4.10563E+11;0.002328336
4.10738E+11;0.002334996
4.10542E+11;0.002343654
4.10956E+11;0.002352312
4.12134E+11;0.002360304
4131809524;0.00236763
4.14315E+11;0.002375622
41544952381;0.002383614
4.16453E+11;0.002391606
4.17631E+11;0.002399598
4.19027E+11;0.002406258
41998666667;0.002412918
42085904762;0.002418912
42066285714;0.002425572
4.20946E+11;0.002431566
4.21186E+11;0.00243756
4.21404E+11;0.00244422
4.21644E+11;0.00245088
4.2195E+11;0.002458872
42225523810;0.002466864
4.22517E+11;0.002474856
4.23957E+11;0.002481516
4.25004E+11;0.002488176
4.25789E+11;0.002494836
4.25483E+11;0.00250083
4.25942E+11;0.002508822
4.26465E+11;0.002516148
42766476190;0.002523474
4.27708E+11;0.0025308
4.29322E+11;0.002538792
4.2917E+11;0.002546118
4.29868E+11;0.002552778
4.30479E+11;0.002559438
43104571429;0.002566098
4.31504E+11;0.002573424
4.31918E+11;0.002581416
4.3242E+11;0.00259074
4.32856E+11;0.002600064
4.34645E+11;0.002609388
4.36521E+11;0.002618712
4.37917E+11;0.00262737
4.39138E+11;0.002634696
4.4036E+11;0.002642022
4.41582E+11;0.00265068
4.42846E+11;0.00265734
4.43457E+11;0.002663334
4.43326E+11;0.002671326
4.44046E+11;0.002678652
4.44504E+11;0.002685312
44509333333;0.002692638
4.45464E+11;0.002699298
4.4566E+11;0.002705292
44620571429;0.002709954
4.4782E+11;0.002715282
4.47253E+11;0.00272061
4.47471E+11;0.002726604
4.47406E+11;0.002733264
4.46915E+11;0.002739258
4.47067E+11;0.002744586
4.47231E+11;0.00275058
4.47209E+11;0.002755908
4.47155E+11;0.002761902
4.47253E+11;0.00276723
4.47907E+11;0.002772558
4.48125E+11;0.002777886
4.47634E+11;0.002783214
4.47711E+11;0.002789208
4.47744E+11;0.002795202
4.47842E+11;0.002801196
4.4782E+11;0.00280719
4.4782E+11;0.00281385
4.47842E+11;0.002821842
4.47929E+11;0.002829834
4.48802E+11;0.002837826
4.49325E+11;0.002845818
4.49936E+11;0.002854476
4.50656E+11;0.002863134
4.52226E+11;0.002871792
4.53273E+11;0.002881116
4.55018E+11;0.002891106
4.5672E+11;0.00290043
4.57461E+11;0.002909088
4.58639E+11;0.002917746
4.59992E+11;0.00292707
4.61213E+11;0.002935062
4.62086E+11;0.002942388
4.61933E+11;0.002949048
4.63656E+11;0.002955708
4.64659E+11;0.002961702
4.6418E+11;0.002967696
4.64572E+11;0.002973024
4.64681E+11;0.002979018
4.64638E+11;0.002984346
46455047619;0.002989674
4.64758E+11;0.002995002
4.64769E+11;0.00300033
4.64649E+11;0.003005658
46467047619;0.003011652
4.64649E+11;0.003017646
4.64681E+11;0.003024306
46467047619;0.003029634
46467047619;0.003035628
4.65205E+11;0.003042288
4.65554E+11;0.003049614
4.65554E+11;0.003056274
4.65685E+11;0.0030636
4.65576E+11;0.003070926
46705904762;0.003079584
4.68019E+11;0.003087576
46928380952;0.003095568
4.70069E+11;0.00310356
4.69895E+11;0.003112218
4.70724E+11;0.003118212
4.72338E+11;0.003124872
4.73254E+11;0.003132864
4.74083E+11;0.003139524
4.73974E+11;0.003145518
4.7561E+11;0.003151512
4.75042E+11;0.003157506
4.75282E+11;0.003164832
4.75391E+11;0.003174156
4.74955E+11;0.003182148
4.75381E+11;0.003188808
4.77616E+11;0.003195468
4.77747E+11;0.003202128
4.77769E+11;0.003207456
4.78184E+11;0.003214116
4.78511E+11;0.003220776
4.78947E+11;0.003228768
4.79143E+11;0.00323676
4.79274E+11;0.003246084
4.79449E+11;0.003254076
4.79929E+11;0.003260736
4.81761E+11;0.003268062
4.82939E+11;0.003274722
4.83506E+11;0.003280716
48309142857;0.003286044
4.83419E+11;0.003291372
4.83593E+11;0.003296034
4.83484E+11;0.003301362
4.83342E+11;0.00330669
4.8356E+11;0.003311352
4.83539E+11;0.003317346
4.83386E+11;0.003322008
4.83386E+11;0.003327336
4.8259E+11;0.003331332
4.82066E+11;0.003335994
4.81761E+11;0.003341322
4.81434E+11;0.00334665
4.81194E+11;0.003351978
4.80954E+11;0.003357972
4.80801E+11;0.003365298
4.80561E+11;0.003373956
4.80965E+11;0.003381948
4.82459E+11;0.003388608
4.83898E+11;0.003397266
4.84727E+11;0.003404592
4856000000;0.003411252
4.86342E+11;0.003417912
4.86123E+11;0.003423906
4.86647E+11;0.0034299
4869523810;0.003435894
48738857143;0.00344322
4.87716E+11;0.003448548
4.88087E+11;0.003455208
4.88501E+11;0.003460536
4.88916E+11;0.003467196
4.89395E+11;0.003471858
4.89766E+11;0.003477852
4.90006E+11;0.003483846
4.89941E+11;0.00348984
4.89755E+11;0.003495168
4.90072E+11;0.003500496
4.90344E+11;0.00350649
4.90944E+11;0.00351315
4.90486E+11;0.003518478
49069333333;0.003524472
4.90879E+11;0.003530466
4.91108E+11;0.003537126
4.91642E+11;0.00354312
4.9138E+11;0.00354978
4.91948E+11;0.003555108
4.92209E+11;0.003561768
4.9258E+11;0.003568428
4.9282E+11;0.003575088
4.93016E+11;0.003581082
4.9354E+11;0.003587076
4.94805E+11;0.003592404
4.94412E+11;0.003597066
4.94914E+11;0.003601728
4.94914E+11;0.003607056
4.94761E+11;0.003612384
4.94511E+11;0.003619044
4.94685E+11;0.003625704
4.94652E+11;0.003632364
4.94696E+11;0.003637692
4.94729E+11;0.003643686
4.95263E+11;0.003650346
4.95699E+11;0.003657006
4.95961E+11;0.003663666
4.96485E+11;0.003670326
49689904762;0.003677652
4.97248E+11;0.003684312
49781523810;0.003690972
4.98382E+11;0.003696966
4.98797E+11;0.003703626
4.99298E+11;0.003710286
4.99582E+11;0.003717612
4.99757E+11;0.003723606
5.00215E+11;0.003730932
5.00694E+11;0.003737592
5.01153E+11;0.003744252
5.01742E+11;0.003751578
5.022E+11;0.003757572
5.02658E+11;0.003764232
5.02985E+11;0.003770226
5.03356E+11;0.003777552
5.0353E+11;0.003784878
5.03748E+11;0.003792204
5.04163E+11;0.00379953
5.04534E+11;0.00380619
5.05886E+11;0.003812184
5.05711E+11;0.003817512
5.06344E+11;0.00382284
5.06802E+11;0.0038295
5.07042E+11;0.003835494
5.07282E+11;0.003841488
5.07457E+11;0.003847482
5.07697E+11;0.003853476
50819809524;0.003858804
5.08722E+11;0.003864798
5.09158E+11;0.00386946
5.09289E+11;0.003874122
5.09311E+11;0.003878784
5.0894E+11;0.003884778
5.09103E+11;0.00388944
5.0918E+11;0.003894102
5.09256E+11;0.00389943
5.09158E+11;0.003904092
5.09103E+11;0.00390942
5.09093E+11;0.00391608
5.09038E+11;0.003923406
50911428571;0.003930732
5.09256E+11;0.003938058
5.11034E+11;0.003945384
5.11994E+11;0.003953376
5.11666E+11;0.003961368
5.12648E+11;0.00396936
5.14698E+11;0.003978018
5.15615E+11;0.003985344
5.16662E+11;0.003993336
5.17403E+11;0.004001328
5.17316E+11;0.00400932
5.19061E+11;0.004016646
51997714286;0.004024638
5.21286E+11;0.004031964
5.22289E+11;0.004038624
5.21831E+11;0.004045284
5.2266E+11;0.004051278
5.23903E+11;0.00405927
5.23511E+11;0.004067262
5.23773E+11;0.004075254
5.241E+11;0.00408258
5.25343E+11;0.004091238
5.25779E+11;0.004098564
5.25801E+11;0.004107222
5.26456E+11;0.004114548
5.28179E+11;0.00412254
5.29444E+11;0.004130532
5.30142E+11;0.004137858
5.2988E+11;0.004146516
5.3036E+11;0.004153176
5.30666E+11;0.00415917
5.31102E+11;0.004165164
5.31734E+11;0.004171158
53219238095;0.004177152
5.32542E+11;0.00418248
5.32738E+11;0.00418914
5.3289E+11;0.004195134
5.33087E+11;0.004201794
5.3288E+11;0.00420912
5.33065E+11;0.00421578
5.33207E+11;0.004223772
5.33316E+11;0.004231764
53334857143;0.004239756
5.33621E+11;0.004247748
5.3577E+11;0.00425574
5.36948E+11;0.004263732
5.36468E+11;0.004270392
5.37144E+11;0.004277718
5.38736E+11;0.004285044
5.40263E+11;0.004293702
5.40699E+11;0.004301694
5.40787E+11;0.004309686
5.42401E+11;0.004317678
54305523810;0.00432567
5.43142E+11;0.004333662
5.45237E+11;0.004340988
5.46284E+11;0.004347648
5.46894E+11;0.004354974
5.47025E+11;0.004361634
5.48421E+11;0.004367628
5.4805E+11;0.004374954
5.48312E+11;0.004381614
5.48443E+11;0.004388274
5.48639E+11;0.004394268
5.48421E+11;0.004400262
5.49098E+11;0.004406256
5.48759E+11;0.004412916
5.48781E+11;0.00441891
5.48912E+11;0.004424238
5.49098E+11;0.004427568
5.49196E+11;0.00443223
5.49218E+11;0.004437558
5.49174E+11;0.004444218
5.47767E+11;0.004450878
5.48334E+11;0.004457538
5.4805E+11;0.004464864
5.47963E+11;0.004471524
5.48574E+11;0.004478184
5.48639E+11;0.004484178
5.49294E+11;0.004491504
5.49795E+11;0.004499496
5.50363E+11;0.00450882
5.50581E+11;0.004518144
5.51104E+11;0.004526802
5.51737E+11;0.00453546
5.53613E+11;0.004544118
5.54703E+11;0.004552776
5.54224E+11;0.004561434
5.55052E+11;0.00456876
5.56405E+11;0.004576086
5.57583E+11;0.004584078
5.58717E+11;0.004591404
5.59284E+11;0.00459873
5.5935E+11;0.004607388
5.59829E+11;0.004614714
5.60222E+11;0.004621374
5.60876E+11;0.004627368
5.61138E+11;0.004633362
5.61378E+11;0.004640022
56164000000;0.004646682
5.61182E+11;0.004652676
5.61378E+11;0.004658004
5.61694E+11;0.00466533
56183619048;0.004672656
5.61803E+11;0.004679316
5.62382E+11;0.00468531
5.63559E+11;0.004691304
5.6308E+11;0.004697964
5.63516E+11;0.004703292
5.63734E+11;0.004709286
5.63756E+11;0.004714614
5.63887E+11;0.004719276
5.63723E+11;0.004723938
5.63734E+11;0.004729266
56354857143;0.004735926
5.63516E+11;0.00474192
5.62883E+11;0.004747914
5.62883E+11;0.004754574
5.63232E+11;0.004761234
5.63298E+11;0.004767228
5.63843E+11;0.004774554
5.64148E+11;0.004782546
5.64432E+11;0.004791204
5.6465E+11;0.004799862
5.65195E+11;0.004807188
5.67093E+11;0.00481518
5.68271E+11;0.004823172
5.69623E+11;0.00483183
5.70365E+11;0.004839822
5.70169E+11;0.004847814
5.71063E+11;0.00485514
5.72808E+11;0.0048618
5.73637E+11;0.004871124
5.74422E+11;0.004879782
57429142857;0.00488844
5.74946E+11;0.004897098
57656000000;0.004904424
5.78E+11;0.004911084
5.78698E+11;0.004917078
5.78392E+11;0.004923072
57882857143;0.004930398
57902476190;0.004937058
5.79112E+11;0.004943718
5.79352E+11;0.004949046
5.79788E+11;0.004954374
5.79897E+11;0.004959036
58018095238;0.004963032
5.79712E+11;0.004966362
5.79712E+11;0.004970358
5.79592E+11;0.004975686
5.77563E+11;0.004981014
5.76342E+11;0.004985676
5.76974E+11;0.004990338
5.76451E+11;0.004997664
5.76255E+11;0.005002992
5.75993E+11;0.00500832
5.75797E+11;0.005013648
57564380952;0.005019642
5.75917E+11;0.005025636
5.75862E+11;0.005030964
5.75698E+11;0.005036958
5.75589E+11;0.005043618
5.75546E+11;0.005050944
5.75557E+11;0.005058936
5.75557E+11;0.005066928
5.7572E+11;0.005074254
5.77563E+11;0.005079582
5.78174E+11;0.00508491
5.7824E+11;0.005090904
57882857143;0.005096232
5.79243E+11;0.00510156
5.79418E+11;0.005106222
5.7933E+11;0.005112216
5.79014E+11;0.005120208
5.79178E+11;0.005126202
5.79407E+11;0.005132862
5.79559E+11;0.005138856
5.80246E+11;0.005146848
5.80944E+11;0.005154174
5.8149E+11;0.0051615
5.82166E+11;0.005168826
58380190476;0.005175486
5.84587E+11;0.005182146
5.84391E+11;0.005187474
5.84936E+11;0.005193468
5.8522E+11;0.005200128
5.85416E+11;0.005206122
5.85765E+11;0.005210784
5.86158E+11;0.005216112
5.86463E+11;0.00522144
5.86529E+11;0.005226102
5.86125E+11;0.00523143
5.86103E+11;0.005236758
5.85678E+11;0.005242086
58559047619;0.005247414
5.85263E+11;0.00525474
5.85678E+11;0.005260734
5.85634E+11;0.005265396
5.85678E+11;0.005272056
5862666667;0.00527805
5.86638E+11;0.005284044
5.86703E+11;0.005290038
5.86725E+11;0.005297364
5.86452E+11;0.005303358
5.86692E+11;0.005310684
5.86921E+11;0.00531801
5.88732E+11;0.00532467
58969142857;0.005330664
5.89408E+11;0.005336658
5.89953E+11;0.005342652
59036761905;0.005349312
5.90498E+11;0.005355972
5.90738E+11;0.005362632
5.91E+11;0.00536796
5.90738E+11;0.00537462
5.91393E+11;0.005381946
5.91055E+11;0.005389938
5.91197E+11;0.00539793
5.91415E+11;0.005405922
5.93269E+11;0.005413248
5.94447E+11;0.005420574
5.95275E+11;0.005428566
5.95036E+11;0.005435892
5.9569E+11;0.005441886
5.96301E+11;0.00544788
5.98068E+11;0.00545454
5.97631E+11;0.005460534
5.97871E+11;0.005466528
59780571429;0.005472522
5.97391E+11;0.005478516
5.97697E+11;0.005485176
5.97784E+11;0.00549117
5.97838E+11;0.005497164
5.97773E+11;0.005503158
5.97882E+11;0.00550782
5.99594E+11;0.005513148
5.99987E+11;0.005518476
5.99442E+11;0.005522472
5.99354E+11;0.005526468
59896190476;0.005530464
5.99071E+11;0.005535126
5.98547E+11;0.005539788
5.97151E+11;0.00554445
5.97588E+11;0.005549778
5.97108E+11;0.005555772
5.97021E+11;0.005562432
5.97151E+11;0.00556776
5.97468E+11;0.00557442
5.9738E+11;0.005582412
5.97784E+11;0.005589738
5.98133E+11;0.005597064
5.98569E+11;0.005605056
6.00205E+11;0.005612382
6.01383E+11;0.005619708
6023428571;0.0056277
6.0195E+11;0.005635692
6.02626E+11;0.005643684
6.04481E+11;0.005653008
60596380952;0.005661666
6.07273E+11;0.005670324
6.08407E+11;0.00567765
6.09236E+11;0.005685642
6.09127E+11;0.0056943
6.09716E+11;0.005702958
6.10435E+11;0.00571095
6.11897E+11;0.00571761
61320571429;0.005725602
6.14514E+11;0.005733594
6.15256E+11;0.005741586
6.15147E+11;0.005748912
6.15867E+11;0.005755572
6.16129E+11;0.005761566
61639047619;0.00576756
6.16783E+11;0.005775552
6.16914E+11;0.005781546
61750285714;0.005788206
6.1807E+11;0.005796198
6.1855E+11;0.005803524
6.18986E+11;0.005809518
6.19335E+11;0.005815512
6.19662E+11;0.005822172
6.19968E+11;0.005828832
6.2023E+11;0.005836158
6.20535E+11;0.005842818
6.20513E+11;0.005850144
6.20262E+11;0.005856804
62056761905;0.00586413
6.20818E+11;0.005871456
6.21735E+11;0.00588078
6.22149E+11;0.005889438
6.22673E+11;0.005898096
62454857143;0.00590742
6.25465E+11;0.00591741
6.26163E+11;0.0059274
6.27428E+11;0.005935392
6.28911E+11;0.00594405
6.3022E+11;0.005952708
63087428571;0.005959368
6.3179E+11;0.005965362
6.32837E+11;0.005972688
6.32379E+11;0.005978682
63290285714;0.005983344
6.33034E+11;0.00598734
6.32794E+11;0.005992002
6.32401E+11;0.00599733
6.32532E+11;0.00600399
6.31943E+11;0.00601065
6.31769E+11;0.006017976
6.31616E+11;0.006025968
6.31921E+11;0.006033294
6.32881E+11;0.00604062
6.3419E+11;0.00604728
6.34801E+11;0.006053274
6.34539E+11;0.006058602
6.34844E+11;0.00606393
6.34975E+11;0.006069924
6.34953E+11;0.006074586
6.34801E+11;0.006079914
6.35084E+11;0.006084576
6.35084E+11;0.006091236
6.35019E+11;0.00609723
6.34921E+11;0.006103224
6.34321E+11;0.006108552
6.34102E+11;0.006115212
6.34124E+11;0.006121872
6.34473E+11;0.0061272
6.35717E+11;0.006133194
6.3672E+11;0.006138522
6.35782E+11;0.006145848
63628380952;0.00615384
63608761905;0.006163164
6.35869E+11;0.006171822
6.37004E+11;0.006179814
6.39294E+11;0.006187806
6.40298E+11;0.006195798
6.40995E+11;0.006204456
6.40974E+11;0.006212448
64173714286;0.006221772
6.43831E+11;0.006231096
6.45053E+11;0.006238422
6.45751E+11;0.006246414
6.45533E+11;0.006254406
6.46012E+11;0.006262398
6.46645E+11;0.00627039
6.48761E+11;0.006277716
6.49372E+11;0.006285708
6.49088E+11;0.006292368
6.49677E+11;0.006299694
6.49939E+11;0.006307686
6.50288E+11;0.006315678
6.5079E+11;0.006323004
6.51204E+11;0.006328998
6.52862E+11;0.006334992
6.53603E+11;0.006340986
6.5308E+11;0.006346314
6.5332E+11;0.006350976
6.53145E+11;0.00635697
6.52862E+11;0.00636363
6.53069E+11;0.006369624
6.53134E+11;0.006376284
6.53113E+11;0.006382278
6.53003E+11;0.006388272
6.52971E+11;0.0063936
6.52993E+11;0.00640026
6.53134E+11;0.006405588
6.53243E+11;0.006411582
6.53734E+11;0.006417576
6.53909E+11;0.00642357
6.53527E+11;0.006430896
6.53723E+11;0.006438222
6.53854E+11;0.006445548
6.54029E+11;0.006452208
6.54759E+11;0.006457536
6.56483E+11;0.00646353
6.55959E+11;0.006470856
6.56439E+11;0.006477516
6.56701E+11;0.006484176
6.56744E+11;0.006492168
6.56984E+11;0.006498162
6.57464E+11;0.006504822
6.58795E+11;0.006512148
65848952381;0.006518808
65892571429;0.006525468
6.591E+11;0.006531462
6.59297E+11;0.006539454
6.59711E+11;0.006547446
6.60213E+11;0.006554106
6.60867E+11;0.006561432
6.61303E+11;0.006568758
6.61674E+11;0.006576084
6.62067E+11;0.006584076
66230666667;0.0065934
6.62939E+11;0.006601392
6.64684E+11;0.006608052
66568761905;0.006614046
6.66298E+11;0.00662004
6.66211E+11;0.006626034
6.66517E+11;0.006630696
6.6656E+11;0.006636024
6.66495E+11;0.006642684
6.662E+11;0.006647346
6.66309E+11;0.006652674
66628761905;0.006657336
6.6571E+11;0.006663996
6.6583E+11;0.006669324
6.65208E+11;0.006673986
6.64859E+11;0.006679314
66457523810;0.006684642
6.64488E+11;0.00668997
6.64314E+11;0.006695964
6.64095E+11;0.006702624
6.6427E+11;0.006709284
6.63703E+11;0.006715944
6.6355E+11;0.006722604
6.63855E+11;0.006728598
6.63877E+11;0.006735258
6.63845E+11;0.00674325
6.63888E+11;0.006751908
66457523810;0.006758568
6.65077E+11;0.006765228
6.65753E+11;0.006771222
6.67564E+11;0.00677655
6.68174E+11;0.006781878
66776000000;0.00678654
66795619048;0.006791868
6.67913E+11;0.006798528
6.67673E+11;0.006805854
6.67989E+11;0.006812514
6.68109E+11;0.006819174
6.6812E+11;0.006825168
6.68338E+11;0.006831828
6.70356E+11;0.006837822
6.70792E+11;0.006843816
6.70334E+11;0.006849144
6.70268E+11;0.006855138
6.70159E+11;0.006861798
6.69996E+11;0.006868458
67034476190;0.006875784
6.70497E+11;0.006882444
6.71119E+11;0.006888438
6.71468E+11;0.006893766
6.71664E+11;0.006899094
6.71926E+11;0.006905088
6.72079E+11;0.006910416
6.72406E+11;0.006917076
6.72777E+11;0.00692307
6.73082E+11;0.006929064
6.73322E+11;0.006935724
6.73257E+11;0.006942384
6.73039E+11;0.006947712
6.73322E+11;0.00695304
6.73562E+11;0.006958368
6.74173E+11;0.00696303
6.74413E+11;0.006969024
6.739E+11;0.006975018
6.73911E+11;0.006981678
6.73955E+11;0.006988338
6.73475E+11;0.006994332
6.73998E+11;0.00699966
6.7498E+11;0.00700632
6.74675E+11;0.00701298
6.75089E+11;0.00701964
6.75089E+11;0.0070263
6.75154E+11;0.007032294
6.75547E+11;0.007038288
6.769E+11;0.007045614
6.76594E+11;0.00705294
6.76878E+11;0.007060266
6.76921E+11;0.007066926
6.77118E+11;0.00707292
67691047619;0.007078914
67770666667;0.007085574
6.78012E+11;0.007092234
6.78274E+11;0.007098894
6.78601E+11;0.007105554
6.78906E+11;0.00711288
6.79255E+11;0.007120872
6.79474E+11;0.007127532
6.79844E+11;0.007134192
6.80259E+11;0.007140186
6.80695E+11;0.00714618
68132761905;0.00715284
68200380952;0.007158834
6.82462E+11;0.007164162
6.83007E+11;0.00716949
6.83334E+11;0.007176816
6.83269E+11;0.007182144
6.83378E+11;0.007187472
6.83171E+11;0.007192134
6.83313E+11;0.007196796
6.83258E+11;0.007201458
6.83323E+11;0.00720612
68335619048;0.007210782
6.83345E+11;0.00721611
6.83302E+11;0.007221438
6.83182E+11;0.007226766
6.83073E+11;0.007232094
6.82571E+11;0.007238088
6.82593E+11;0.007244082
6.82822E+11;0.007251408
6.82724E+11;0.007258734
6.82844E+11;0.007266726
6.84796E+11;0.007274052
6.85494E+11;0.007281378
6.85538E+11;0.007290036
6.87544E+11;0.007297362
6.88635E+11;0.007304688
6.89377E+11;0.007312014
6.90206E+11;0.007320006
6.91078E+11;0.007327332
6.92343E+11;0.007336656
6.93565E+11;0.00734598
6.94001E+11;0.007354638
6.93892E+11;0.00736263
6.95528E+11;0.00736929
6.97491E+11;0.007377282
6.98189E+11;0.007386606
6.97971E+11;0.007395264
6.98909E+11;0.007404588
7.01243E+11;0.00741258
7.02334E+11;0.00741924
7.02901E+11;0.007426566
7.0386E+11;0.007434558
7.04777E+11;0.007440552
7.04493E+11;0.007445214
7.04951E+11;0.00745254
7.05147E+11;0.0074592
7.05234E+11;0.007467192
7.05366E+11;0.007474518
7.05311E+11;0.007480512
7.06042E+11;0.007486506
7.06543E+11;0.007493832
7.06936E+11;0.007500492
7.0722E+11;0.007507152
7.07372E+11;0.007513812
7.07547E+11;0.007521138
7.07307E+11;0.007527798
7.0807E+11;0.007534458
7.08376E+11;0.007541118
7.08594E+11;0.007547112
7.08986E+11;0.007554438
7.09445E+11;0.007561764
7.11059E+11;0.007571088
7.10688E+11;0.007581078
7.11517E+11;0.007590402
7.13109E+11;0.00759906
7.14069E+11;0.007607718
7.15988E+11;0.00761571
7.17995E+11;0.007623036
7.18693E+11;0.007629696
7.18584E+11;0.007635024
7.19369E+11;0.007641018
7.19631E+11;0.007647012
7.1974E+11;0.007653672
7.19544E+11;0.007661664
7.19271E+11;0.00766899
7.19478E+11;0.007676316
7.20787E+11;0.007684308
7.21703E+11;0.007690968
7.22619E+11;0.007697628
7.2323E+11;0.007703622
7.23274E+11;0.007710282
7.23885E+11;0.007716942
7.24125E+11;0.007722936
7.24452E+11;0.00772893
7.24605E+11;0.007734258
7.24255E+11;0.007740252
7.24441E+11;0.007746912
7.24615E+11;0.007753572
7.24681E+11;0.0077589
7.24714E+11;0.007764894
7.24735E+11;0.007770222
7.24735E+11;0.00777555
7.24714E+11;0.007781544
72477904762;0.007787538
7.2479E+11;0.007793532
7.24746E+11;0.007800192
7.24648E+11;0.007808184
7.24605E+11;0.007816176
7.24768E+11;0.007824168
7.2624E+11;0.00783216
7.27462E+11;0.007840152
7.28029E+11;0.007847478
7.28116E+11;0.00785547
7.28662E+11;0.007863462
7.29185E+11;0.00787212
7.29709E+11;0.007881444
7.30254E+11;0.007890102
7.32435E+11;0.007898094
7.33744E+11;0.00790542
7.34355E+11;0.007913412
7.34355E+11;0.007921404
7.35031E+11;0.007929396
7.35533E+11;0.007936056
7.36034E+11;0.007942716
7.36405E+11;0.007949376
7.36885E+11;0.007954704
7.37278E+11;0.007960698
7.37758E+11;0.007966026
7.38085E+11;0.007970688
7.38172E+11;0.007976682
7.37649E+11;0.007982676
73767047619;0.00798867
7.37714E+11;0.00799533
7.37387E+11;0.008002656
7.37747E+11;0.008009316
7.37736E+11;0.00801531
7.38434E+11;0.008020638
7.39546E+11;0.008025966
7.39132E+11;0.00803196
7.38914E+11;0.008037954
7.37801E+11;0.008043948
7.38565E+11;0.008049942
7.38281E+11;0.008055936
7.38859E+11;0.008062596
7.39372E+11;0.008069922
7.39437E+11;0.008076582
7.39634E+11;0.008084574
7.39895E+11;0.0080919
74085523810;0.008099226
74061523810;0.008107884
7.41204E+11;0.008117208
74172761905;0.008126532
74308000000;0.008133192
7.44302E+11;0.008139852
7.45959E+11;0.008146512
7.46832E+11;0.008153172
7.46483E+11;0.008159832
7.46832E+11;0.008167824
7.46701E+11;0.00817515
7.46854E+11;0.008183142
7.46777E+11;0.008191134
7.47159E+11;0.00819846
7.4825E+11;0.00820512
7.49668E+11;0.00821178
7.50366E+11;0.008217774
7.51194E+11;0.008224434
7.50911E+11;0.00823176
7.51129E+11;0.008239752
7.51304E+11;0.008247078
7.51478E+11;0.008253072
7.5174E+11;0.008259732
7.52198E+11;0.00826506
7.52547E+11;0.008272386
7.52329E+11;0.00827838
7.51969E+11;0.00828504
75215428571;0.008290368
7.52372E+11;0.008296362
7.52482E+11;0.00830169
7525142857;0.008307018
75247047619;0.008313012
7.52449E+11;0.008317008
7.52525E+11;0.008323002
7.52569E+11;0.008326998
7.51871E+11;0.00833166
75032190476;0.008336322
7.49798E+11;0.008342316
7.50017E+11;0.008346978
7.49864E+11;0.008352306
7.49842E+11;0.0083583
7.50224E+11;0.008365626
7498857143;0.008372286
74976571429;0.008379612
74976571429;0.008385606
7498857143;0.008392266
7.50082E+11;0.008400258
7.50846E+11;0.00840825
7.51151E+11;0.00841491
7.51653E+11;0.008420904
7.52852E+11;0.008426898
7.52634E+11;0.008432892
75331047619;0.008438886
7.53768E+11;0.00844488
7.54248E+11;0.008450208
7.54401E+11;0.008456868
7.54488E+11;0.008462862
7.54575E+11;0.008469522
7.54336E+11;0.008477514
7.54488E+11;0.00848484
7.54783E+11;0.008492832
7.56561E+11;0.00850149
7.56233E+11;0.008510148
75688761905;0.008517474
7.5752E+11;0.0085248
7.59614E+11;0.00853146
7.6053E+11;0.008537454
7.6016E+11;0.008544114
7.60552E+11;0.008549442
7.60661E+11;0.008554104
7.60858E+11;0.008559432
7.60498E+11;0.008563428
7.60639E+11;0.00856809
7.60563E+11;0.008572752
7.60007E+11;0.00857808
7.59505E+11;0.008583408
7.59113E+11;0.008589402
75872000000;0.00859473
75824000000;0.008600058
7.58022E+11;0.00860472
75780380952;0.008610048
7.57542E+11;0.008615376
7.5728E+11;0.008620704
7.56975E+11;0.008626698
7.56953E+11;0.008632692
7.57171E+11;0.008639352
7.56964E+11;0.008646012
7.5679E+11;0.008652006
75676761905;0.008658
7.56702E+11;0.008663328
7.56746E+11;0.008668656
7.56822E+11;0.008673984
7.568E+11;0.008679978
7.56931E+11;0.008686638
7.5704E+11;0.008693964
7.57051E+11;0.00870129
7.57018E+11;0.00870795
75712761905;0.008715942
7.58349E+11;0.008723268
7.59483E+11;0.008729928
7.5992E+11;0.008737254
7.60007E+11;0.00874458
7.60574E+11;0.008751906
7.60967E+11;0.008758566
7.61403E+11;0.008765226
7.61796E+11;0.00877122
7.61948E+11;0.008777214
7.6221E+11;0.008783208
7.62515E+11;0.008789868
7.62624E+11;0.008796528
7.62995E+11;0.008803188
7.63366E+11;0.008809848
7.63671E+11;0.008815842
7.64108E+11;0.00882117
7.64435E+11;0.008826498
7.64653E+11;0.00883116
7.64697E+11;0.008836488
7.64424E+11;0.00884115
7.64522E+11;0.008845812
7.64544E+11;0.008850474
7.64326E+11;0.008855802
7.63519E+11;0.008862462
7.63126E+11;0.008868456
7.62646E+11;0.008875116
7.62559E+11;0.008882442
7.62319E+11;0.008889768
7.62275E+11;0.008895096
7.62505E+11;0.008900424
76258095238;0.008905752
7.62614E+11;0.008913078
7.63039E+11;0.008919072
7.63475E+11;0.008925732
7.63671E+11;0.008931726
7.6389E+11;0.008939052
7.64042E+11;0.008947044
7.63824E+11;0.008956368
7646095238;0.008965692
7.66507E+11;0.008975682
7.67641E+11;0.008985006
7.68165E+11;0.00899433
7.69386E+11;0.009002322
77069523810;0.009009648
7.72004E+11;0.009016308
77248380952;0.009022302
7.72157E+11;0.00902763
7.72462E+11;0.009033624
7.72113E+11;0.009041616
7.7184E+11;0.009048942
7.71906E+11;0.009056934
7.7135E+11;0.009064926
7.71797E+11;0.009072918
7.7183E+11;0.009080244
7.71862E+11;0.009088902
7.72658E+11;0.009096894
7.73073E+11;0.009104886
77340000000;0.009112212
7.73814E+11;0.009118872
7.74185E+11;0.009125532
7.74294E+11;0.009132858
7.74425E+11;0.009141516
7.74142E+11;0.009148842
7.74403E+11;0.009156168
7.746E+11;0.00916416
7.75363E+11;0.009171486
7.75494E+11;0.00917748
7.75494E+11;0.009182808
7.75167E+11;0.009188802
7.75374E+11;0.009194796
7.7533E+11;0.00920079
7.75167E+11;0.009208116
7.746E+11;0.009214776
7.73924E+11;0.009221436
7.73771E+11;0.009229428
7.73749E+11;0.009236754
7.74273E+11;0.009245412
77419619048;0.009253404
7.74949E+11;0.009261396
7.7545E+11;0.009268056
7.75756E+11;0.009274716
7.75974E+11;0.009282042
7.76214E+11;0.009290034
7.76519E+11;0.009298692
7.76519E+11;0.009306018
7.76334E+11;0.009312678
7.76487E+11;0.009320004
77658476190;0.00932733
7.76748E+11;0.009335322
7.76868E+11;0.009341316
7.76988E+11;0.00934731
7.76901E+11;0.009354636
7.76836E+11;0.009361296
7.76738E+11;0.009368622
77634476190;0.009374616
7.76258E+11;0.009381276
7.76519E+11;0.009387936
7.76301E+11;0.009393264
7.75996E+11;0.009398592
7.75385E+11;0.009403254
7.74883E+11;0.009407916
7.73138E+11;0.00941391
7.71481E+11;0.009418572
7.70564E+11;0.009424566
7.70848E+11;0.009429894
7.6991E+11;0.009435888
7.68121E+11;0.009442548
7.67292E+11;0.009448542
7.6642E+11;0.009455868
7.65111E+11;0.009463194
7.64108E+11;0.009471186
7.64435E+11;0.009478512
7.63933E+11;0.009486504
7.63671E+11;0.009495162
7.63279E+11;0.009502488
7.62952E+11;0.009511812
7.62319E+11;0.00952047
7.61686E+11;0.009527796
7.61359E+11;0.009534456
7.60814E+11;0.009542448
7.59265E+11;0.00955044
7.57477E+11;0.009559764
75577523810;0.009567756
7.51849E+11;0.009576414
7.47312E+11;0.009585072
7.42077E+11;0.009593064
73631809524;0.00960039
7.2768E+11;0.00960705
7.18082E+11;0.00961371
7.0674E+11;0.00962037
69330285714;0.009626364
6.75242E+11;0.009632358
6.5116E+11;0.009642348
4.36608E+11;0.009658332
