Stress;Strain
6.52644E+11;0.000114552
6.70094E+11;0.00012321
6.91471E+11;0.000132534
7.35533E+11;0.000142524
7.50366E+11;0.000151182
7.71306E+11;0.000159174
7.88756E+11;0.0001665
8.14059E+11;0.000172494
8.35E+11;0.000178488
84808761905;0.00018315
8.61612E+11;0.000189144
8.73391E+11;0.00019647
8.77753E+11;0.000203796
8.80807E+11;0.00020979
9.04801E+11;0.00021645
9.15708E+11;0.00022311
9.2356E+11;0.000230436
9.36212E+11;0.000237096
9.5279E+11;0.00024309
9.65005E+11;0.000251082
98158285714;0.000259074
9.97288E+11;0.000265734
1.00732E+12;0.000272394
1.02215E+12;0.000280386
1.04048E+12;0.000287712
1.05313E+12;0.00029637
1.06055E+12;0.000305694
1.09763E+12;0.000315684
1.10853E+12;0.00032301
1126857143;0.000330336
1.14125E+12;0.000336996
1.15434E+12;0.000344988
1.1683E+12;0.000352314
1.18313E+12;0.000358974
11992761905;0.000367632
1.21411E+12;0.000377622
1.2272E+12;0.000388278
1.24334E+12;0.000398934
1.26515E+12;0.000408924
1.29045E+12;0.000418248
1.33321E+12;0.000426906
1.34499E+11;0.000434898
1.36942E+11;0.000441558
1.3873E+12;0.000447552
1.39952E+12;0.000454878
1.41304E+12;0.000462204
1.42046E+12;0.000468198
1.42002E+12;0.000473526
1.43922E+12;0.000478854
1.44838E+12;0.000484182
1.45449E+12;0.000490176
1.46496E+12;0.00049617
1.47674E+12;0.000502164
1.48328E+12;0.000507492
1.49506E+12;0.00051282
1.50858E+12;0.000518148
1.51513E+12;0.00052281
1.51578E+12;0.000527472
1.52167E+12;0.000533466
1.52712E+12;0.000538128
1.53301E+12;0.000543456
1.54959E+12;0.000548118
1.55744E+12;0.000554112
1.5533E+12;0.00055944
1.55941E+12;0.0005661
1.57228E+12;0.000573426
1.58449E+12;0.000580086
1.59714E+12;0.000586746
1.60718E+12;0.000593406
1.61547E+12;0.000600066
1.6303E+12;0.000607392
1.64775E+11;0.00061605
1.66346E+12;0.000625374
1.67567E+12;0.000633366
1.68614E+12;0.000642024
1.70708E+12;0.000651348
1.73326E+12;0.000660672
1.75158E+12;0.000669996
1.76467E+12;0.000678654
1.78255E+12;0.00068598
1.80044E+12;0.000693972
1.81309E+12;0.000701298
1.82618E+12;0.000707958
1.84101E+12;0.000713952
1.85759E+12;0.000719946
1.8685E+12;0.000725274
1.86435E+12;0.000731934
1.87112E+12;0.000740592
1.87613E+12;0.000747918
1.89249E+12;0.00075591
1.90732E+11;0.00076257
1.92434E+11;0.000770562
1.93874E+11;0.000777888
1.95182E+11;0.000785214
1.96535E+11;0.000791874
1.97494E+11;0.0007992
1.9828E+11;0.000806526
1.99676E+11;0.000814518
2.0081E+11;0.000821178
2.01814E+11;0.000828504
2.03122E+11;0.000835164
2.043E+11;0.000840492
2.05434E+11;0.000846486
2.0622E+11;0.000853146
2.07005E+11;0.000859806
2.0779E+11;0.000866466
20774666667;0.000873126
20953523810;0.000879786
21088761905;0.000886446
2.11891E+11;0.000893106
2.12633E+11;0.0008991
2.13636E+11;0.000905094
2.14858E+11;0.000910422
2.15992E+11;0.000916416
2.15556E+11;0.000921078
2.16188E+11;0.00092574
21677714286;0.0009324
2.17999E+11;0.000939726
2.17802E+11;0.000947052
2.18457E+11;0.000955044
2.19874E+11;0.00096237
2.20878E+11;0.00096903
2.2223E+11;0.00097569
2240190476;0.000981018
2.25241E+11;0.000987678
2.25851E+11;0.00099567
2.2596E+11;0.001002996
2.27466E+11;0.001009656
2.28382E+11;0.001014984
2.29385E+11;0.001021644
23034476190;0.00102897
2.31435E+11;0.001036962
2.32395E+11;0.001042956
2.33486E+11;0.00104895
2.34577E+11;0.001056276
2.35274E+11;0.00106227
23512190476;0.00106893
2.35711E+11;0.001074924
2.36256E+11;0.001080918
2.36714E+11;0.001088244
2.37194E+11;0.001094238
2.37456E+11;0.001100898
2.37718E+11;0.001106226
2.39201E+11;0.00111222
2.4099E+11;0.001116882
2.42037E+11;0.00112221
2.41687E+11;0.001128204
2.42255E+11;0.001134864
24256000000;0.00114219
2.42953E+11;0.001150182
2.44436E+11;0.001157508
2.45483E+11;0.001164834
2.46486E+11;0.001170828
2.47446E+11;0.001178154
2.48231E+11;0.001186146
2.49148E+11;0.001192806
2.50195E+11;0.001200132
2.5098E+11;0.001206126
2.50936E+11;0.001212786
2.52681E+11;0.00121878
2.5351E+11;0.00122544
2.53379E+11;0.001232766
2.54055E+11;0.00123876
2.54754E+11;0.001244754
2.5652E+11;0.001249416
25704380952;0.001254744
2.57218E+11;0.001259406
2.58963E+11;0.001264734
2.58374E+11;0.00127206
2.59051E+11;0.001279386
2.59203E+11;0.001284714
2.59487E+11;0.001290708
2602285714;0.001296702
2.61799E+11;0.00130203
2.61385E+11;0.001307358
2.6217E+11;0.001312686
2.63631E+11;0.001317348
2.63239E+11;0.00132201
2.64155E+11;0.00132867
2.64657E+11;0.001333998
2.65049E+11;0.001339992
2.6542E+11;0.001347318
2.65791E+11;0.001354644
2.66053E+11;0.001360638
2.66467E+11;0.001366632
2.67187E+11;0.001371294
2.68736E+11;0.00137529
2.68452E+11;0.001379952
26925904762;0.001383948
2.70699E+11;0.00138861
2.70437E+11;0.001393272
2.70786E+11;0.001399266
2.70742E+11;0.001405926
27029523810;0.001412586
2.7059E+11;0.001419246
2.70928E+11;0.001426572
27176761905;0.0014319
2.7384E+11;0.001437228
2.75018E+11;0.001443222
2.75367E+11;0.001449882
2.75301E+11;0.001456542
2.75541E+11;0.001463202
2.7589E+11;0.001469862
2.76348E+11;0.001475856
2.77766E+11;0.001482516
2.77548E+11;0.001489842
2.78311E+11;0.001497168
2.80384E+11;0.00150516
2.81518E+11;0.001513152
28103809524;0.001521144
2.8202E+11;0.00152847
2.8431E+11;0.001535796
2.85226E+11;0.001543122
28601142857;0.001550448
2.87102E+11;0.001557774
2.88106E+11;0.001565766
2.88847E+11;0.001573092
2.88825E+11;0.001580418
2.89545E+11;0.001587744
29146476190;0.001593738
2.92512E+11;0.001599066
2.92206E+11;0.00160506
2.94082E+11;0.001609722
2.9478E+11;0.00161505
2.94431E+11;0.001620378
29484571429;0.00162504
2.94998E+11;0.001629702
2.95413E+11;0.001634364
2.95806E+11;0.001640358
2.96133E+11;0.001647018
2.96176E+11;0.001653012
29576190476;0.00165834
2.96067E+11;0.001663668
2.97834E+11;0.001668996
2.97376E+11;0.001674324
2.97921E+11;0.001678986
29846666667;0.001684314
2.98685E+11;0.001689642
2.99056E+11;0.001696968
2.99514E+11;0.001703628
29981904762;0.001709622
3.0019E+11;0.001716282
3.00844E+11;0.001722942
30228380952;0.001730268
3.03244E+11;0.001738926
3.04029E+11;0.001746252
3.04858E+11;0.001752912
3.06079E+11;0.001760238
3.06646E+11;0.001769562
3.06777E+11;0.00177822
3.09264E+11;0.001786878
3.10747E+11;0.001796202
3.12056E+11;0.001805526
3.13714E+11;0.001814184
3.1511E+11;0.001822176
3.16593E+11;0.001829502
3.17902E+11;0.001836162
3.18774E+11;0.001843488
31951619048;0.001850148
3.19298E+11;0.001857474
3.19822E+11;0.001865466
3.20127E+11;0.001872792
3.2065E+11;0.001880118
3.2257E+11;0.001886778
3.23791E+11;0.001892772
3.24577E+11;0.001899432
3.25667E+11;0.001905426
3.26104E+11;0.00191142
3.25798E+11;0.00191808
3.263E+11;0.00192474
3.263E+11;0.001930068
3.26474E+11;0.001937394
32675809524;0.001944054
3.26605E+11;0.001950714
3.27478E+11;0.001958706
3.29376E+11;0.001966032
3.30292E+11;0.001973358
3.3003E+11;0.00198135
3.30728E+11;0.001990008
3.31208E+11;0.001998666
3.31819E+11;0.00200799
33352000000;0.002015316
3.35222E+11;0.00202131
3.36748E+11;0.00202797
33714095238;0.002037294
3.37054E+11;0.002046618
3.3749E+11;0.002055942
3.39191E+11;0.002063934
3.40806E+11;0.00207126
3.41809E+11;0.002078586
34303047619;0.002085246
3.44296E+11;0.002093238
3.44994E+11;0.002099898
3.44645E+11;0.002106558
3.45343E+11;0.002113218
3.46913E+11;0.002118546
3.47437E+11;0.00212454
3.47458E+11;0.002131866
3.47829E+11;0.002139858
3.48157E+11;0.002146518
3.48593E+11;0.002151846
34892000000;0.002159172
3.49531E+11;0.002166498
3.50163E+11;0.002172492
3.50665E+11;0.00217782
3.51058E+11;0.002182482
3.51298E+11;0.002187144
3514285.714;0.002193138
3.51712E+11;0.002199798
3.51974E+11;0.002205792
3.52083E+11;0.00221112
3.52323E+11;0.002216448
3.52475E+11;0.002223108
3.52225E+11;0.002229102
3.52366E+11;0.00223443
3.52617E+11;0.002240424
3.52825E+11;0.002247084
3.53784E+11;0.002253744
3.54308E+11;0.00226107
3.54679E+11;0.002268396
3.5494E+11;0.002276388
3.55464E+11;0.002285046
3.57645E+11;0.00229437
3.58343E+11;0.002303694
3.58234E+11;0.002313018
3.60437E+11;0.002322342
3.61921E+11;0.002331666
3.62749E+11;0.002339658
3.64538E+11;0.00234765
3.66458E+11;0.002356308
3.6733E+11;0.002362968
3.67178E+11;0.002369628
3.67985E+11;0.002375622
3.68508E+11;0.002382948
3.68639E+11;0.002390274
3.68726E+11;0.002396268
3.68792E+11;0.002402928
3.68726E+11;0.002408256
3.68955E+11;0.002412918
3.69708E+11;0.002418246
3.69773E+11;0.002423574
3.69948E+11;0.002428902
3.70275E+11;0.002435562
3.70068E+11;0.002441556
3.70558E+11;0.002448882
3.70733E+11;0.002455542
3.70624E+11;0.002461536
3.72173E+11;0.002468196
3.73394E+11;0.002475522
3.74005E+11;0.002482848
3.73656E+11;0.002490174
3.74179E+11;0.0024975
3.74441E+11;0.002503494
3.74986E+11;0.002509488
3.75575E+11;0.002515482
3.76077E+11;0.002522142
3.76666E+11;0.002528802
3783238095;0.002535462
3.79371E+11;0.002543454
3.79066E+11;0.002551446
3.7972E+11;0.002558772
38015619048;0.002565432
3.80723E+11;0.002573424
38242476190;0.002582082
3.82905E+11;0.00259074
3.8297E+11;0.002599398
3.84824E+11;0.002608722
3.86177E+11;0.002616048
3.867E+11;0.002622042
3.86831E+11;0.002629368
3.88794E+11;0.002636028
38918666667;0.002642022
3.89034E+11;0.002648016
3.89252E+11;0.002654676
3.89383E+11;0.002662002
3.89558E+11;0.002669328
3.89372E+11;0.002676654
3.9019E+11;0.00268398
3.90648E+11;0.00269064
3.91172E+11;0.0026973
3.91717E+11;0.002702628
3.91826E+11;0.002707956
3.92001E+11;0.00271395
3.91957E+11;0.002719278
3.91881E+11;0.00272394
3.92088E+11;0.002728602
3.92284E+11;0.002735262
3.92917E+11;0.002741922
3.92982E+11;0.002749248
3.93157E+11;0.00275391
3.93353E+11;0.002758572
3.93124E+11;0.002764566
3.93266E+11;0.002769894
3.93429E+11;0.002774556
3.93549E+11;0.002778552
3.9356E+11;0.002783214
3.93571E+11;0.002789208
3.93462E+11;0.002795868
3.92742E+11;0.002802528
3.9272E+11;0.002807856
3.93255E+11;0.00281385
3.93244E+11;0.002821176
39372380952;0.002827836
3.94029E+11;0.00283383
3.94487E+11;0.00284049
3.94902E+11;0.002848482
3.95665E+11;0.002855142
3.97127E+11;0.002862468
3.96647E+11;0.002869794
3.97192E+11;0.00287712
3.9861E+11;0.00288378
3.99962E+11;0.002889774
4.00791E+11;0.0028971
4.00617E+11;0.002904426
4.01358E+11;0.002909754
4.02013E+11;0.002916414
4.03496E+11;0.002921076
4.03212E+11;0.002925738
4.03823E+11;0.0029304
4.04303E+11;0.002935062
4.04478E+11;0.00294039
4.04478E+11;0.002945718
4.03987E+11;0.002952378
4.04085E+11;0.002959704
4.03562E+11;0.00296703
40367047619;0.002974356
4.04172E+11;0.002981016
4.05895E+11;0.002986344
4.06637E+11;0.002993004
40661523810;0.00300033
4.07204E+11;0.003006324
4.07662E+11;0.003012984
4.0812E+11;0.003019644
4.08426E+11;0.003026304
4.08775E+11;0.003032298
4.09255E+11;0.003037626
40980000000;0.00304362
4.11349E+11;0.003048948
4.10847E+11;0.003054276
41091238095;0.003058938
4.10978E+11;0.003064266
4.10694E+11;0.003068928
41091238095;0.003074922
4.11142E+11;0.003080916
4.11218E+11;0.00308691
4.11174E+11;0.00309357
4.11763E+11;0.00310023
4.11698E+11;0.003106224
4.12526E+11;0.003112218
4.1305E+11;0.003118878
4.13355E+11;0.003125538
4.13465E+11;0.003132198
4.13792E+11;0.003138192
4.15275E+11;0.003144852
4.14839E+11;0.003150846
4.15646E+11;0.003157506
4.1606E+11;0.003164166
4.16649E+11;0.003171492
4.17129E+11;0.003178818
4.17456E+11;0.00318681
4.17849E+11;0.003194136
4.18198E+11;0.003201462
4.19856E+11;0.003208788
42042285714;0.003216114
4.2027E+11;0.00322344
4.2075E+11;0.003230766
4.2123E+11;0.003238092
4.22822E+11;0.003244086
4.23346E+11;0.00325008
4.23193E+11;0.00325674
4.23673E+11;0.003262734
4.23935E+11;0.003268728
4.2424E+11;0.003274722
4.24654E+11;0.00328005
4.24873E+11;0.003285378
42515619048;0.003291372
4.25483E+11;0.0032967
4.25571E+11;0.003302028
42583238095;0.00330669
4.26094E+11;0.003310686
4.25789E+11;0.003314682
4.2592E+11;0.003319344
4.26105E+11;0.003325338
4.26149E+11;0.003330666
4.26258E+11;0.003335328
4.26345E+11;0.003340656
4.26378E+11;0.00334665
4.26334E+11;0.003351978
42643238095;0.003359304
4.26541E+11;0.003365964
4.26661E+11;0.003373956
4.27359E+11;0.003381948
4.27992E+11;0.003389274
4.29672E+11;0.0033966
4.30457E+11;0.003404592
4.30391E+11;0.00341325
4.32114E+11;0.003421242
43355428571;0.003428568
4.34689E+11;0.003435894
4.34296E+11;0.003445218
4.35081E+11;0.00345321
4.36739E+11;0.00345987
43809142857;0.003465864
4.38615E+11;0.00347319
4.38593E+11;0.003481848
4.39073E+11;0.00348984
4.39597E+11;0.003497832
44123238095;0.003505824
4.42323E+11;0.00351315
4.43021E+11;0.00351981
4.42978E+11;0.003527136
4.43675E+11;0.003535128
4.4433E+11;0.003542454
4.44897E+11;0.003550446
4.4566E+11;0.003557106
4.4734E+11;0.0035631
4.46969E+11;0.003568428
4.47514E+11;0.003573756
4.47384E+11;0.003580416
4.46762E+11;0.00358641
4.46849E+11;0.00359307
4.46664E+11;0.003601062
4.47187E+11;0.003608388
4.47318E+11;0.00361638
4.48125E+11;0.003624372
4.48583E+11;0.003632364
4.48998E+11;0.003640356
4.49456E+11;0.003648348
4.50917E+11;0.003655674
4.50721E+11;0.003663666
4.51375E+11;0.003670992
4.52139E+11;0.003678318
4.54189E+11;0.00368631
4.55236E+11;0.003694302
4.54844E+11;0.003703626
45547619048;0.00371295
4.56065E+11;0.003722274
45842095238;0.003730266
4.59948E+11;0.003737592
4.60559E+11;0.00374625
4.60537E+11;0.003754908
4.61235E+11;0.003762234
4.62696E+11;0.003770226
4.63787E+11;0.003778218
4.64965E+11;0.003783546
4.65314E+11;0.003787542
4.65205E+11;0.003792204
4.65554E+11;0.003797532
4.65358E+11;0.003804192
4.64834E+11;0.003810186
4.65096E+11;0.00381618
4.65238E+11;0.003822174
4.65336E+11;0.003828834
4.65368E+11;0.00383616
4.65358E+11;0.003843486
4.65728E+11;0.00384948
4.65554E+11;0.00385614
4.65826E+11;0.0038628
4.66088E+11;0.003867462
4.66972E+11;0.00387279
46725523810;0.003878118
4.67299E+11;0.003883446
4.66786E+11;0.003888774
4.66972E+11;0.00389277
4.66972E+11;0.003897432
4.66448E+11;0.003903426
4.66208E+11;0.003908754
4.65816E+11;0.00391608
4.65837E+11;0.003924738
4.66219E+11;0.00393273
4.66274E+11;0.003942054
4.66884E+11;0.003950046
46841142857;0.003958038
4.69546E+11;0.003966696
4.70287E+11;0.00397602
4.71378E+11;0.003984678
4.72381E+11;0.003994668
4.72098E+11;0.004003326
4.72839E+11;0.004011318
4.74606E+11;0.004019976
4.76177E+11;0.0040293
4.76875E+11;0.004037958
4.76831E+11;0.00404595
4.77595E+11;0.004053276
4.79231E+11;0.004061268
4.80059E+11;0.004068594
47990666667;0.00407592
48062666667;0.004083246
4.8115E+11;0.004089906
4.81543E+11;0.004096566
4.81892E+11;0.004103226
48197904762;0.004109886
4.8211E+11;0.00411588
4.82568E+11;0.004121874
4.83811E+11;0.004127868
4.83179E+11;0.004133862
4.83419E+11;0.004139856
4.82928E+11;0.004146516
4.83015E+11;0.004151844
4.8319E+11;0.004157838
48333142857;0.004164498
4.83321E+11;0.004170492
4.83419E+11;0.004176486
4.84204E+11;0.004181148
4.84291E+11;0.00418581
48444380952;0.004191804
4.84106E+11;0.004197798
4.8416E+11;0.00420246
4.8428E+11;0.004207122
4.84487E+11;0.004213782
4.8464E+11;0.004221774
4.85316E+11;0.004229766
4.85491E+11;0.004238424
4.85665E+11;0.004247082
4.85862E+11;0.004255074
4.87258E+11;0.004261734
4883047619;0.004269726
4.88916E+11;0.004277052
4.89003E+11;0.00428571
4.89548E+11;0.00429237
4.90246E+11;0.00429903
4.90901E+11;0.00430569
4923619048;0.00431235
4.92187E+11;0.004319676
4.92667E+11;0.004327668
4.93126E+11;0.004336326
4.93344E+11;0.004344984
4.93933E+11;0.004354308
4.95459E+11;0.004362966
4.96681E+11;0.004370292
4.98208E+11;0.00437562
4.99298E+11;0.004380948
4.99909E+11;0.004387608
4.99582E+11;0.004393602
4.99473E+11;0.004397598
4.99364E+11;0.00440226
4.9908E+11;0.00440559
4.99211E+11;0.00440892
49849142857;0.004412916
4.96681E+11;0.004417578
49598285714;0.00442224
4.96092E+11;0.004426236
4.95634E+11;0.004430898
4.95263E+11;0.004436226
4.94827E+11;0.004440888
4.94478E+11;0.00444555
4.94042E+11;0.00445221
4.93802E+11;0.004458204
4.93998E+11;0.004464198
4.94391E+11;0.004472856
4.94325E+11;0.004482846
49487047619;0.004492836
4.95176E+11;0.004501494
49689904762;0.004510152
4.98906E+11;0.004516812
5.00782E+11;0.004522806
5.01349E+11;0.004528134
5.01087E+11;0.004534794
5.01502E+11;0.004540122
5.01785E+11;0.004546116
5.02003E+11;0.004550778
5.02025E+11;0.004556106
5.0172E+11;0.0045621
5017523810;0.004568094
5.01818E+11;0.004574088
50187238095;0.004579416
5.02014E+11;0.004584078
50199238095;0.00458874
50278857143;0.004593402
5.02898E+11;0.004599396
5.0245E+11;0.00460539
5.0305E+11;0.004612716
5.02898E+11;0.004619376
5.03105E+11;0.004626702
5.03726E+11;0.004632696
5.04075E+11;0.00463869
5043809.524;0.00464535
5.0497E+11;0.00465201
50549333333;0.004657338
5.05755E+11;0.004662666
5.05995E+11;0.004667994
5.06017E+11;0.004674654
5.0581E+11;0.004679982
5.06519E+11;0.00468531
5.06802E+11;0.004690638
5.06977E+11;0.004695966
5.07042E+11;0.00470196
5.0678E+11;0.004707288
5.06955E+11;0.004712616
5.07195E+11;0.00471861
5.07315E+11;0.004724604
5.07195E+11;0.004730598
5.07238E+11;0.004737258
5.07391E+11;0.004743252
5.07566E+11;0.004751244
5.08176E+11;0.00475857
5.08809E+11;0.004763898
5.1051E+11;0.004770558
51094666667;0.004777218
5.10489E+11;0.004783878
5.10641E+11;0.004791204
51046666667;0.004797864
5.10336E+11;0.00480519
5.10783E+11;0.00481185
5.12692E+11;0.00481851
51229904762;0.004825836
51297523810;0.004832496
5.13586E+11;0.004839822
5.14917E+11;0.004847814
5.1472E+11;0.004853808
5.15375E+11;0.004860468
5.15854E+11;0.004866462
5.16269E+11;0.004873788
5.16683E+11;0.004881114
5.16967E+11;0.004889106
5.17294E+11;0.004895766
5.17818E+11;0.004902426
5.18298E+11;0.00490842
5.18821E+11;0.00491508
51930095238;0.004921074
5.19694E+11;0.004926402
5.19999E+11;0.004933062
5.20108E+11;0.00493839
5.20108E+11;0.004943718
5.20032E+11;0.00494838
5.20282E+11;0.004953708
5.20871E+11;0.004959036
5.21046E+11;0.004964364
5.20522E+11;0.004969692
5.20402E+11;0.00497502
5.19999E+11;0.004981014
5.20086E+11;0.004986342
5.21286E+11;0.004991004
5.2061E+11;0.004996998
5.21199E+11;0.005002326
5.21111E+11;0.00500832
5.20806E+11;0.005014314
5.21155E+11;0.005020974
52137333333;0.0050283
5.22049E+11;0.005036292
5.22529E+11;0.005044284
52268190476;0.005050944
5.23184E+11;0.00505827
5.23729E+11;0.005065596
5.25387E+11;0.005072922
5.26172E+11;0.00508158
5.26128E+11;0.005088906
5.26848E+11;0.00509823
5.27525E+11;0.005107554
52905142857;0.005115546
5.30535E+11;0.005123538
5.31887E+11;0.005130864
5.3276E+11;0.005138856
5.33676E+11;0.005146848
53446095238;0.00515484
5.35464E+11;0.005162166
53624952381;0.005168826
5.35988E+11;0.005175486
5.36904E+11;0.005182812
5.38474E+11;0.005190138
5.38038E+11;0.00519813
5.38518E+11;0.005206122
5.38605E+11;0.005212116
5.3878E+11;0.00521811
5.39173E+11;0.005224104
5.39631E+11;0.005230764
5.40045E+11;0.00523809
5.40198E+11;0.005245416
5.40307E+11;0.005252076
5.40503E+11;0.005259402
5.40285E+11;0.005267394
5.40383E+11;0.005274054
5.40547E+11;0.005280714
5.41834E+11;0.005287374
5.42357E+11;0.0052947
5.42095E+11;0.005303358
5.42554E+11;0.005312016
5.42924E+11;0.005320674
5.43361E+11;0.005328666
5.44015E+11;0.005335326
5.44713E+11;0.005343318
5.46153E+11;0.00535131
5.45891E+11;0.005359968
54648000000;0.005369292
5.47854E+11;0.005377284
5.49032E+11;0.005383944
5.50035E+11;0.00539127
5.51126E+11;0.005399262
55212952381;0.00540792
5.52915E+11;0.005415246
55280571429;0.005422572
5.5322E+11;0.005429232
5.53634E+11;0.005435892
5.53853E+11;0.005443884
5.54049E+11;0.005451876
5.54529E+11;0.005458536
5.54922E+11;0.005463864
5.55554E+11;0.005468526
5.56099E+11;0.005473188
5.56209E+11;0.00547785
5.56448E+11;0.005483178
5.55772E+11;0.005488506
5.54573E+11;0.0054945
5.54267E+11;0.005500494
5.54376E+11;0.005505822
5.54289E+11;0.005511816
55439809524;0.005519142
5.54682E+11;0.005525136
5.54431E+11;0.005529798
5.54583E+11;0.005535792
5.56143E+11;0.00554112
5.55663E+11;0.005546448
55599047619;0.00555111
5.55859E+11;0.00555777
5.55456E+11;0.00556443
5.55685E+11;0.005570424
5.55794E+11;0.005577084
5.55794E+11;0.00558441
5.55816E+11;0.005592402
5.55903E+11;0.00560106
5.56405E+11;0.005609052
5.5815E+11;0.005617044
56028761905;0.00562437
5.60942E+11;0.005631696
5.60506E+11;0.005639022
5.60942E+11;0.005646348
5.60986E+11;0.005655006
5.61007E+11;0.005663664
5.61313E+11;0.005673654
5.61727E+11;0.005682312
5.63996E+11;0.00569097
56569714286;0.005699628
5.67006E+11;0.005708286
5.68358E+11;0.005715612
56931809524;0.005722938
5.68794E+11;0.005729598
5.69122E+11;0.005736258
5.69209E+11;0.005742918
56931809524;0.005749578
5.69645E+11;0.005755572
5.703E+11;0.005761566
5.70758E+11;0.005766894
5.70823E+11;0.005772888
5.71019E+11;0.005778882
5.70529E+11;0.005784876
5.70714E+11;0.00579087
5.70747E+11;0.005796864
5.70725E+11;0.005802858
5.70627E+11;0.005808852
5.70572E+11;0.005814846
5.70769E+11;0.005822172
5.71412E+11;0.005828166
5.71696E+11;0.00583416
57202285714;0.005840154
5.72154E+11;0.005846148
5.72306E+11;0.005852808
5.72503E+11;0.005858802
5.72339E+11;0.005865462
5.72503E+11;0.005873454
5.73092E+11;0.00588078
5.73484E+11;0.005888772
5.74008E+11;0.005896764
5.7475E+11;0.005905422
5.76255E+11;0.00591408
5.76102E+11;0.005922738
5.76909E+11;0.005931396
5.77389E+11;0.005940054
5.78261E+11;0.00594738
5.80225E+11;0.005953374
5.81054E+11;0.005958702
5.80835E+11;0.005965362
5.81119E+11;0.005971356
5.81184E+11;0.005976684
5.81402E+11;0.005982678
5.81195E+11;0.005988006
5.81424E+11;0.005995998
5.821E+11;0.006002658
58177333333;0.006009318
5.8234E+11;0.006015312
5.82711E+11;0.006019974
58288571429;0.006025968
5.82973E+11;0.006032628
5.82689E+11;0.006039288
5.82853E+11;0.006044616
5.82973E+11;0.00605061
5.82962E+11;0.006056604
5.8294E+11;0.006062598
5.8294E+11;0.00606726
5.8294E+11;0.006071922
5.82951E+11;0.00607725
5.82875E+11;0.006083244
5.82668E+11;0.006089238
5.82471E+11;0.006095898
5.81817E+11;0.006102558
5.81577E+11;0.006108552
5.82188E+11;0.006115212
5.82199E+11;0.006123204
5.82188E+11;0.006131196
5.83169E+11;0.006138522
5.83715E+11;0.006145848
5.85067E+11;0.006151842
5.85002E+11;0.00615717
58559047619;0.006161832
5.85765E+11;0.006169158
5.85918E+11;0.006176484
5.85874E+11;0.006184476
5.85798E+11;0.006192468
5.86081E+11;0.006199794
5.87903E+11;0.006207786
5.88601E+11;0.006214446
5.88448E+11;0.006219774
5.90215E+11;0.006226434
5.91131E+11;0.006233094
5.90498E+11;0.006238422
5.90935E+11;0.006243084
5.91371E+11;0.006246414
5.92702E+11;0.006249078
5.91829E+11;0.006253074
5.90084E+11;0.006258402
5.88993E+11;0.00626373
5.8943E+11;0.006269724
5.88993E+11;0.006276384
5.8895E+11;0.006283044
58921142857;0.006289704
5.89473E+11;0.00629703
5.90019E+11;0.006305022
5.90433E+11;0.00631368
5.90957E+11;0.006321672
5.92745E+11;0.006328332
5.93923E+11;0.006334326
5.94403E+11;0.006340986
5.94316E+11;0.00634698
5.94621E+11;0.006351642
5.94992E+11;0.006357636
5.95319E+11;0.006362964
5.95472E+11;0.006367626
5.94992E+11;0.006372288
5.95134E+11;0.00637695
5.95199E+11;0.006382278
5.95112E+11;0.00638694
5.95046E+11;0.006392268
5.94916E+11;0.006397596
5.9425E+11;0.006402258
5.94447E+11;0.006408252
5.9377E+11;0.006414246
5.93618E+11;0.00642024
5.93879E+11;0.006427566
5.93825E+11;0.006434226
5.93781E+11;0.00644022
5.93803E+11;0.006447546
5.94338E+11;0.00645354
5.95014E+11;0.006461532
5.96541E+11;0.006468858
59621333333;0.006475518
59669333333;0.006482844
5.97064E+11;0.00649017
5.97326E+11;0.006497496
59760952381;0.006504822
5.98198E+11;0.006512814
5.99725E+11;0.006519474
6.0038E+11;0.006526134
6.00096E+11;0.006532794
6.00467E+11;0.006538788
6.01012E+11;0.006544782
6.02081E+11;0.006551442
6.01623E+11;0.006557436
6.01863E+11;0.006564762
6.01819E+11;0.006572088
6.02212E+11;0.006579414
6.03783E+11;0.006585408
6.04306E+11;0.006592068
6.04241E+11;0.006598062
6.04764E+11;0.006604056
60528761905;0.006609384
6.05593E+11;0.006614712
6.05702E+11;0.006619374
6.05658E+11;0.006624702
6.05342E+11;0.006629364
6.05484E+11;0.00663336
6.05473E+11;0.006638688
6.05397E+11;0.006644682
6.05179E+11;0.00665001
6.05037E+11;0.006655338
6049714286;0.00666
6.04993E+11;0.006665994
6.05015E+11;0.006671988
6.04895E+11;0.006677982
6.04928E+11;0.006685974
6.04982E+11;0.0066933
6.05157E+11;0.006699294
6.05451E+11;0.00670662
6.06291E+11;0.006713946
6.06836E+11;0.006721272
6.07513E+11;0.006729264
6.0941E+11;0.006737256
61002095238;0.006745914
61006476190;0.006754572
61228952381;0.006764562
6.129E+11;0.00677322
6.12704E+11;0.006779214
6.13642E+11;0.006785208
61591047619;0.006792534
6.16478E+11;0.006801858
6.16194E+11;0.006809184
6.16478E+11;0.006815844
6.16979E+11;0.006822504
6.19139E+11;0.006830496
6.19706E+11;0.006838488
6.19553E+11;0.00684648
6.20077E+11;0.006854472
6.20339E+11;0.006862464
6.20884E+11;0.006869124
6.22542E+11;0.00687645
6.23283E+11;0.006883776
62291238095;0.006890436
6.23458E+11;0.006897762
6.23807E+11;0.006904422
62430857143;0.006910416
6.24723E+11;0.006915078
6.25006E+11;0.006921738
6.25137E+11;0.006927732
6.24658E+11;0.006935058
6.24799E+11;0.006941052
6.24876E+11;0.006947046
6.25006E+11;0.006954372
6.24974E+11;0.006961698
62498476190;0.006970356
6.25083E+11;0.006977682
6.25246E+11;0.006985674
6.26163E+11;0.006991668
6.26948E+11;0.006997662
62860571429;0.00700299
6.29304E+11;0.00700965
6.28977E+11;0.00701631
6.29326E+11;0.007024302
6.29456E+11;0.007033626
6.29674E+11;0.007042284
62995809524;0.00704961
6.30503E+11;0.00705627
6.32532E+11;0.007064928
6.3323E+11;0.00707292
6.3299E+11;0.007080246
6.33972E+11;0.007088904
6.35935E+11;0.007097562
6.36589E+11;0.00710622
6.36633E+11;0.00711288
6.37309E+11;0.007120206
6.37942E+11;0.007128198
6.38662E+11;0.007134858
6.40167E+11;0.007140186
6.39948E+11;0.007146846
6.40516E+11;0.007154172
6.40625E+11;0.007160832
6.40777E+11;0.007167492
6.41083E+11;0.00717282
6.41323E+11;0.007177482
64173714286;0.00718281
6.41759E+11;0.007187472
6.41192E+11;0.007194132
6399047619;0.007200126
6.40298E+11;0.007205454
6.40254E+11;0.007210782
6.40472E+11;0.00721611
6.40745E+11;0.007221438
6.40537E+11;0.007226766
64026476190;0.00723276
6.40221E+11;0.007238754
63970857143;0.007245414
6.39447E+11;0.007252074
6.3997E+11;0.007260066
6.39861E+11;0.007268724
6.39828E+11;0.007276716
6.40646E+11;0.007287372
6.4274E+11;0.007297362
6.437E+11;0.007306686
6.44529E+11;0.00731601
6.45663E+11;0.007325334
6.47059E+11;0.007334658
6.48412E+11;0.00734265
6.4959E+11;0.007349976
6.50637E+11;0.007356636
6.50179E+11;0.007363296
6.50637E+11;0.007370622
6.50833E+11;0.007377282
6.50942E+11;0.007384608
6.5116E+11;0.007391934
6.51553E+11;0.00739926
6.51793E+11;0.007405254
6.52033E+11;0.007411248
6.52404E+11;0.007417908
6.52665E+11;0.007424568
6.53102E+11;0.007430562
6.53385E+11;0.00743589
6.53407E+11;0.007441884
6.53451E+11;0.007447878
6.532E+11;0.007453872
6.53287E+11;0.007460532
65339619048;0.007466526
65347238095;0.00747252
6.53527E+11;0.007477848
6.53996E+11;0.007483176
65414857143;0.00748917
6.53745E+11;0.007494498
6.538E+11;0.007499826
6.53876E+11;0.00750582
6.5393E+11;0.00751248
6.5393E+11;0.00751914
6.53854E+11;0.0075258
6.53865E+11;0.007533126
6.53974E+11;0.00754245
6.54236E+11;0.007551108
6.55043E+11;0.007559766
6.55763E+11;0.007567758
6.57748E+11;0.00757575
6.58708E+11;0.007584408
6.58293E+11;0.007593732
65916571429;0.007603056
6.60758E+11;0.007611048
6.61718E+11;0.007618374
6.63332E+11;0.007625034
6.64248E+11;0.007631694
6.63637E+11;0.007637688
6.63768E+11;0.007643016
6.63725E+11;0.00764901
6.63921E+11;0.007655004
6.6391E+11;0.007660332
66457523810;0.007667658
6.64597E+11;0.007674318
6640190476;0.00768231
6.63921E+11;0.007689636
6.63376E+11;0.00769563
6.63528E+11;0.007701624
6.64859E+11;0.007707618
66457523810;0.007712946
6.64968E+11;0.007718274
6.6475E+11;0.007723602
6.64346E+11;0.007730262
6.64619E+11;0.007736256
6.64717E+11;0.007741584
6.64608E+11;0.007746912
6.64542E+11;0.007750242
66433523810;0.007753572
6.64194E+11;0.007758234
6.64095E+11;0.007763562
66322285714;0.00776889
6.61718E+11;0.007774884
6.62023E+11;0.007781544
6.615E+11;0.00778887
6.61107E+11;0.007796196
6.61325E+11;0.007802856
6.61652E+11;0.007810182
6.61576E+11;0.007817508
6.62198E+11;0.007824168
66346285714;0.007831494
6.63441E+11;0.007837488
6.64095E+11;0.007844814
6.64619E+11;0.00785214
6.65077E+11;0.007859466
6.65513E+11;0.00786546
6.66124E+11;0.007871454
6.67694E+11;0.007874784
66732380952;0.007880112
6.67498E+11;0.007886772
6.67302E+11;0.0078921
6.66953E+11;0.007898094
6.67095E+11;0.007904088
6.66691E+11;0.007911414
6.66364E+11;0.007917408
6.66255E+11;0.007924068
6.66691E+11;0.007930728
6.68218E+11;0.007936056
66795619048;0.007941384
6.68502E+11;0.007947378
6.6872E+11;0.007954038
6.68611E+11;0.007960032
6.68327E+11;0.007966692
6.68731E+11;0.00797202
6.68938E+11;0.00797868
66954857143;0.007986672
6.69658E+11;0.007993998
6.6932E+11;0.008002656
6.70072E+11;0.008009982
67046476190;0.00801531
6.70945E+11;0.008020638
6.71446E+11;0.008027298
6.71926E+11;0.008033292
6.72319E+11;0.008039286
6.72559E+11;0.008044614
6.72711E+11;0.008049276
6.72711E+11;0.008053272
6.72461E+11;0.008057934
6.72504E+11;0.008062596
6.72395E+11;0.008067924
6.71468E+11;0.008072586
6.71054E+11;0.008077914
6.70705E+11;0.008083908
6.70508E+11;0.008089902
6.70399E+11;0.008095896
6.70694E+11;0.00810189
6.70541E+11;0.008109216
6.70497E+11;0.008116542
6.70563E+11;0.008124534
6.71097E+11;0.008132526
6.7245E+11;0.008139852
6.73104E+11;0.008146512
6.7306E+11;0.008153838
6.73737E+11;0.008160498
6.74217E+11;0.008165826
6.7474E+11;0.008173152
6.75351E+11;0.008180478
6.75722E+11;0.008187804
6.76005E+11;0.00819513
6.76202E+11;0.008202456
6.76398E+11;0.008209782
6.77729E+11;0.008217108
6.77423E+11;0.008223768
6.78317E+11;0.008229762
6.79692E+11;0.008235756
6.79321E+11;0.008240418
6.79583E+11;0.008245746
6.79343E+11;0.008251074
6.79135E+11;0.008255736
6.79386E+11;0.008259732
6.79648E+11;0.00826506
6.79659E+11;0.008269722
6.79659E+11;0.00827505
6.7955E+11;0.008280378
6.79506E+11;0.008287038
6.79015E+11;0.008292366
6.78994E+11;0.008297694
6.79419E+11;0.008303022
6.79321E+11;0.008309016
67929904762;0.00831501
6.79223E+11;0.008321004
6.79266E+11;0.008326332
6.79397E+11;0.00833166
6.79583E+11;0.008336988
6.79561E+11;0.008342982
67949523810;0.008348976
6.79463E+11;0.008355636
67949523810;0.008363628
6.80695E+11;0.008370954
6.81611E+11;0.008378946
6.82396E+11;0.008387604
6.834E+11;0.008397594
6.84011E+11;0.008406252
6.85494E+11;0.00841491
6.87152E+11;0.008422902
6.87937E+11;0.008430894
6.88984E+11;0.008439552
6.89944E+11;0.008448876
6.90947E+11;0.008457534
6.91907E+11;0.008464194
6.92736E+11;0.008470854
6.93739E+11;0.008478846
6.93368E+11;0.008487504
6.93914E+11;0.00849483
6.94197E+11;0.008502156
6.94612E+11;0.008510148
6.96051E+11;0.00851814
6.96749E+11;0.008525466
6.96727E+11;0.008532126
69736000000;0.008537454
6.97796E+11;0.008542782
6.98014E+11;0.00854811
6.98058E+11;0.008553438
6.97676E+11;0.008560098
6.97884E+11;0.008567424
6.97949E+11;0.008576082
6.98014E+11;0.00858474
6.98026E+11;0.008592066
6.98091E+11;0.008598726
6.98822E+11;0.008606052
7.00239E+11;0.008614044
6.9989E+11;0.008622036
7.00676E+11;0.008628696
7.01156E+11;0.008635356
7.01723E+11;0.008640684
7.02181E+11;0.008646012
7.02464E+11;0.008652006
7.02595E+11;0.008659998
7.0253E+11;0.008668656
7.02388E+11;0.008675982
7.02671E+11;0.008683974
70460190476;0.0086913
7.053E+11;0.008698626
7.05213E+11;0.008705952
7.05889E+11;0.008713944
7.06522E+11;0.008721936
7.07089E+11;0.008728596
7.07525E+11;0.00873459
7.09226E+11;0.008741916
7.10361E+11;0.008749242
7.09663E+11;0.008757234
7.10164E+11;0.008765892
7.10382E+11;0.008775216
7.11626E+11;0.00878454
7.11386E+11;0.00879453
7.12346E+11;0.008803188
7.14854E+11;0.008810514
7.16163E+11;0.00881784
7.16817E+11;0.008825166
71686095238;0.008832492
7.17275E+11;0.008838486
7.17624E+11;0.008845146
7.17908E+11;0.008851806
7.18039E+11;0.008856468
7.18192E+11;0.008861796
7.17941E+11;0.008866458
7.18017E+11;0.008870454
7.17919E+11;0.008875116
7.17341E+11;0.008880444
7.1577E+11;0.008886438
7.15988E+11;0.008892432
7.15727E+11;0.008901756
7.15552E+11;0.008912412
71570476190;0.008923068
7.16206E+11;0.008932392
7.19478E+11;0.008940384
7.21311E+11;0.008949042
7.22314E+11;0.008958366
7.23318E+11;0.00896769
7.23885E+11;0.008976348
7.24015E+11;0.008985006
7.25412E+11;0.008992332
7.25281E+11;0.009000324
7.26022E+11;0.009006984
7.26371E+11;0.009013644
7.26895E+11;0.009019638
7.27047E+11;0.009025632
7.26895E+11;0.00903096
72668761905;0.009036954
72692761905;0.009042282
7.26884E+11;0.009048276
7.26786E+11;0.009052272
7.26633E+11;0.009056934
7.25782E+11;0.009062262
7.25717E+11;0.00906759
72545523810;0.009072252
7.25259E+11;0.009076914
7.25412E+11;0.009082242
7.24801E+11;0.009088236
72453904762;0.00909423
7.2419E+11;0.00910089
72410285714;0.009106884
7.23994E+11;0.00911421
7.24179E+11;0.00912087
72410285714;0.00912753
72429904762;0.009133524
7.26066E+11;0.009140184
7.25412E+11;0.00914751
7.25739E+11;0.009153504
7.2563E+11;0.009159498
7256952381;0.00916749
7.25761E+11;0.009175482
7.26502E+11;0.009182808
7.27047E+11;0.0091908
7.27353E+11;0.00919746
7.27702E+11;0.00920412
7.28313E+11;0.009211446
7.296E+11;0.009218772
7.29098E+11;0.009226098
7.29403E+11;0.009233424
7.29622E+11;0.009242082
7297523810;0.009248742
7.30276E+11;0.009255402
7.30843E+11;0.009262062
7.31279E+11;0.009269388
73202095238;0.009275382
73269714286;0.009282042
7.33024E+11;0.009289368
7.3309E+11;0.009296694
7.33002E+11;0.00930402
7.32882E+11;0.009312012
7.3418E+11;0.009319338
7.33919E+11;0.009325332
7.34508E+11;0.009331992
7.34835E+11;0.009337986
7.35053E+11;0.009345312
7.35184E+11;0.009353304
7.34867E+11;0.009361962
7350857143;0.009369954
73540190476;0.00937728
7.37147E+11;0.009385272
7.37845E+11;0.009391266
7.37845E+11;0.00939726
7.38303E+11;0.009403254
7.38412E+11;0.009408582
7.38259E+11;0.009414576
73810666667;0.00942057
7.38259E+11;0.009426564
7.38281E+11;0.00943056
7.38216E+11;0.009435222
7.37561E+11;0.009439884
7.37365E+11;0.009445878
7.37191E+11;0.009451206
7.36842E+11;0.009456534
7365142857;0.009461862
7.35969E+11;0.009466524
7.35773E+11;0.009471852
7.35686E+11;0.009477846
7.36154E+11;0.009485172
7.35991E+11;0.009495828
7.36002E+11;0.009506484
7.37932E+11;0.009516474
73945904762;0.009526464
7.41378E+11;0.009535122
7.43429E+11;0.009544446
7.44433E+11;0.009551772
7.4548E+11;0.0095571
7.46701E+11;0.009562428
7.46156E+11;0.009568422
7.46723E+11;0.00957375
7.46679E+11;0.009577746
7.46439E+11;0.009583074
7.46221E+11;0.009587736
7.45894E+11;0.009591732
7.45741E+11;0.009596394
7.45632E+11;0.009601722
7.45239E+11;0.009606384
7.43778E+11;0.009612378
7.43211E+11;0.009617706
7.43516E+11;0.0096237
7.43451E+11;0.009629694
7.43386E+11;0.009635022
74375619048;0.009639684
7.43451E+11;0.009645012
7.43353E+11;0.009651006
7.43374E+11;0.009656334
7.43451E+11;0.009662994
7.43451E+11;0.009668988
74332000000;0.009674316
7.43429E+11;0.009678978
7.43603E+11;0.009684972
7.43702E+11;0.009691632
7.44149E+11;0.009698292
7.44258E+11;0.009704286
7.44007E+11;0.00971028
74423619048;0.009716274
7.45109E+11;0.009721602
7.45545E+11;0.009726264
74558857143;0.009731592
7.45545E+11;0.00973692
7.45174E+11;0.009742914
7.45239E+11;0.009748242
7.45261E+11;0.009754902
7.45185E+11;0.009760896
7.45021E+11;0.009767556
7.44945E+11;0.00977355
7.44967E+11;0.009779544
7.44956E+11;0.009785538
7.44901E+11;0.009792198
7.44978E+11;0.009798858
74503238095;0.009806184
7.4525E+11;0.00981351
7.45763E+11;0.009820836
7.46068E+11;0.009828828
7.46723E+11;0.009835488
7.48839E+11;0.009840816
7.49537E+11;0.009847476
74896952381;0.009854802
7.4934E+11;0.009861462
7.49166E+11;0.009868122
74920952381;0.009874782
7.49798E+11;0.009882108
7.51587E+11;0.009888102
7.51064E+11;0.00989343
7.51653E+11;0.009899424
7.5174E+11;0.009906084
7.51609E+11;0.009912078
75191428571;0.009917406
75191428571;0.009922734
7.52023E+11;0.009928062
7525904762;0.009934056
7.52896E+11;0.009939384
7.52525E+11;0.009944046
7.52645E+11;0.009948708
7.52798E+11;0.009954036
7.5282E+11;0.009959364
7.52798E+11;0.009965358
7.52787E+11;0.009971352
7.52721E+11;0.009977346
7.52743E+11;0.009984006
7.54292E+11;0.009989334
7.5379E+11;0.009995328
7.54226E+11;0.010001988
7.54205E+11;0.010008648
7.54074E+11;0.010014642
7.53965E+11;0.010020636
7.54336E+11;0.010028628
7.54532E+11;0.010035954
7.55361E+11;0.010043946
7.55644E+11;0.010051938
7.56233E+11;0.010060596
7.57913E+11;0.010069254
7.59004E+11;0.010077246
7.60051E+11;0.010085238
7.60661E+11;0.010094562
7.60552E+11;0.010101888
7.61338E+11;0.010109214
7.63715E+11;0.010117872
7.64631E+11;0.010125864
7.64195E+11;0.010134522
76480571429;0.010142514
76504571429;0.01014984
7.65591E+11;0.010157166
7.67031E+11;0.010163826
7.66943E+11;0.010170486
7.67402E+11;0.010178478
7.67838E+11;0.010184472
7.68339E+11;0.010189134
7.68732E+11;0.01019646
7.69016E+11;0.01020312
7.68863E+11;0.010210446
7.68514E+11;0.010217772
7.68634E+11;0.010225764
7.68896E+11;0.01023309
7.69136E+11;0.010241082
7.69801E+11;0.01024974
7.70434E+11;0.010257732
7.71022E+11;0.010265058
7.71481E+11;0.010272384
7.72113E+11;0.010279044
7.72375E+11;0.01028637
7.72658E+11;0.01029303
7.73073E+11;0.010301022
7.73466E+11;0.010308348
77388000000;0.010317006
7.74403E+11;0.010324332
7.75887E+11;0.010331658
7.77283E+11;0.010338318
7.77501E+11;0.010345644
7.77501E+11;0.010352304
7.78112E+11;0.010361628
7.78221E+11;0.010370286
7.7881E+11;0.010377612
7.79464E+11;0.010383606
78155809524;0.0103896
78088190476;0.010396926
7.81144E+11;0.010404252
7.811E+11;0.010411578
78044571429;0.010417572
7.80817E+11;0.010423566
78124190476;0.010428894
7.82692E+11;0.010435554
7.82212E+11;0.010440882
7.82322E+11;0.010447542
7.82103E+11;0.010454868
7.81864E+11;0.010462194
7820380952;0.01046952
7.82125E+11;0.010476846
7.82125E+11;0.010484172
7.83565E+11;0.010490166
7.84656E+11;0.010497492
7.84176E+11;0.010504818
7.84546E+11;0.010510812
7847428571;0.01051614
7847428571;0.010522134
7.84448E+11;0.01052946
7.84666E+11;0.010536786
7.84754E+11;0.01054278
7.84874E+11;0.01054944
7.85037E+11;0.010555434
7.85659E+11;0.010562094
7.85899E+11;0.010568088
78585523810;0.010574082
7.8555E+11;0.010580742
7.85648E+11;0.010586736
7.85822E+11;0.010593396
7.8591E+11;0.010600722
7.85986E+11;0.010608048
78653142857;0.010615374
78677142857;0.010624032
7.86946E+11;0.010633356
7.87273E+11;0.01064268
7.8784E+11;0.010652004
7.89193E+11;0.010661994
7.90109E+11;0.010669986
7.91374E+11;0.010677978
7.93075E+11;0.010685304
79468952381;0.01069263
7.95082E+11;0.01069929
7.94624E+11;0.010704618
7.94515E+11;0.010709946
7.94231E+11;0.010715274
7.94144E+11;0.010721268
7.94319E+11;0.010727262
7.94188E+11;0.01073259
7.93991E+11;0.010737918
7.93228E+11;0.010743912
7.93141E+11;0.01074924
7.93544E+11;0.010754568
7.92988E+11;0.010761228
7.93075E+11;0.010768554
7.9289E+11;0.010775214
7928571429;0.010781874
7.92879E+11;0.0107892
7.94079E+11;0.010796526
7.9397E+11;0.010803852
7.94581E+11;0.010809846
7.9506E+11;0.010817172
7.95562E+11;0.010823832
7.95867E+11;0.010830492
7.96151E+11;0.010837818
79628190476;0.010845144
7.96456E+11;0.01085247
7.96827E+11;0.01085913
7.98223E+11;0.010866456
7.99052E+11;0.010873116
7.98812E+11;0.010879776
7.99598E+11;0.010886436
7.99925E+11;0.010893762
79990285714;0.010901088
7.99816E+11;0.01090908
7.99652E+11;0.010917738
7.99925E+11;0.01092573
8.01539E+11;0.010933056
8.02455E+11;0.010940382
8.02259E+11;0.010948374
8.02891E+11;0.0109557
8.03349E+11;0.010963026
8.03851E+11;0.010969686
8.04244E+11;0.010976346
8.04658E+11;0.010983006
8.04942E+11;0.010990998
8.05203E+11;0.010997658
8.05705E+11;0.011003652
80598857143;0.011011644
8.06381E+11;0.011017638
8.06447E+11;0.011024964
8.06065E+11;0.011031624
8.06294E+11;0.011037618
8.06534E+11;0.01104228
8.06654E+11;0.011046942
8.06588E+11;0.011053602
8.06534E+11;0.011058264
8.06578E+11;0.011062926
8.06621E+11;0.01106892
8.06556E+11;0.011074248
8.06479E+11;0.011079576
8.06272E+11;0.011084904
8.06054E+11;0.011090232
8.05509E+11;0.011094894
8.05138E+11;0.01109889
8.04614E+11;0.011102886
8.03284E+11;0.01110888
8.03829E+11;0.011114208
8.03437E+11;0.011120202
8.03218E+11;0.011127528
8.03022E+11;0.01113552
8.0276E+11;0.011142846
8.0312E+11;0.011150838
8.04462E+11;0.011158164
8.05422E+11;0.011164824
8.05094E+11;0.011171484
8.0601E+11;0.011176812
8.07472E+11;0.01118214
8.07101E+11;0.011186802
8.07472E+11;0.011192796
8.0745E+11;0.01119879
8.06883E+11;0.011206116
8.07047E+11;0.011212776
8.07134E+11;0.011218104
8.07243E+11;0.011224098
8.07297E+11;0.01122876
8.07756E+11;0.011234088
8.08235E+11;0.011240748
8.08454E+11;0.011246076
8.08192E+11;0.01125207
8.07963E+11;0.01125873
8.0805E+11;0.011264724
8.07559E+11;0.011270718
8.08006E+11;0.011277378
8.07974E+11;0.011284038
8.07974E+11;0.011291364
8.08606E+11;0.011299356
8.09741E+11;0.011308014
8.09653E+11;0.011316006
8.10308E+11;0.011322666
8.11965E+11;0.01132866
8.12707E+11;0.01133532
8.12402E+11;0.011341314
8.1262E+11;0.011347308
8.12685E+11;0.011353302
8.12816E+11;0.01135863
8.12587E+11;0.011364624
81279428571;0.011369952
8.12849E+11;0.011375946
8.12729E+11;0.01138194
8.12565E+11;0.011386602
8.12074E+11;0.01139193
8.11856E+11;0.011397924
8.11834E+11;0.011403252
81211809524;0.011407914
8.12053E+11;0.011414574
8.1178E+11;0.011420568
8.11714E+11;0.011427228
8.11627E+11;0.011434554
8.10853E+11;0.011441214
8.11366E+11;0.011447874
8.11376E+11;0.011453868
81144190476;0.011461194
8.12205E+11;0.011467854
81235809524;0.011474514
8.12685E+11;0.011481174
8.12882E+11;0.011489166
81255428571;0.011495826
8.13122E+11;0.011502486
8.12958E+11;0.011509812
8.13165E+11;0.011516472
8.13754E+11;0.011523798
8.14081E+11;0.011530458
8.14408E+11;0.011537784
8.14758E+11;0.011543778
8.1491E+11;0.011550438
8.15106E+11;0.011555766
81525904762;0.01156176
8.15041E+11;0.011567754
8.15161E+11;0.011573748
8.15292E+11;0.011580408
8.15335E+11;0.011587068
8.15346E+11;0.011593062
8.15423E+11;0.011599056
8.15455E+11;0.011603718
8.15564E+11;0.011609046
8.15575E+11;0.011614374
8.15488E+11;0.011620368
8.15401E+11;0.011625696
8.1539E+11;0.011630358
8.15412E+11;0.011635686
8.15335E+11;0.011640348
8.15172E+11;0.01164501
81494285714;0.011649672
8.14845E+11;0.011655
8.14758E+11;0.011660328
8.1467E+11;0.011665656
8.14485E+11;0.011672316
8.13776E+11;0.01167831
8.13601E+11;0.01168497
8.1334E+11;0.011692962
81323047619;0.01170162
8.13525E+11;0.011709612
8.13656E+11;0.01171827
8.15368E+11;0.01172826
8.16154E+11;0.011737584
8.16982E+11;0.011746908
81820380952;0.0117549
8.19774E+11;0.011762226
8.20996E+11;0.011768886
8.21607E+11;0.011777544
8.2141E+11;0.011786202
8.21803E+11;0.011793528
8.22348E+11;0.011800854
82274095238;0.011807514
8.23134E+11;0.011814174
8.23635E+11;0.011820834
8.23941E+11;0.01182816
8.24246E+11;0.011835486
8.24442E+11;0.011842146
8.24006E+11;0.011848806
8.24061E+11;0.0118548
8.24224E+11;0.011862126
8.24279E+11;0.011870118
8.2429E+11;0.011878776
8.24312E+11;0.011886102
8.2441E+11;0.011893428
8.25315E+11;0.011902086
8.26929E+11;0.011908746
8.26493E+11;0.011914074
8.26994E+11;0.011920068
8.26994E+11;0.011926728
8.26329E+11;0.011932722
8.26427E+11;0.011939382
8.26078E+11;0.011946042
8.25838E+11;0.011952036
8.25795E+11;0.011958696
8.25598E+11;0.011966022
8.25271E+11;0.011973348
8.24988E+11;0.011979342
8.25031E+11;0.011985336
8.25424E+11;0.011993328
8.25435E+11;0.01200132
8.25904E+11;0.012009312
82592571429;0.012017304
8.26122E+11;0.012025296
82727809524;0.012033288
8.27976E+11;0.012040614
8.27693E+11;0.012049272
8.28042E+11;0.01205793
8.28216E+11;0.01206459
8.28565E+11;0.012073248
8.28936E+11;0.01208124
8.29263E+11;0.012089232
8.29656E+11;0.012096558
8.29786E+11;0.012103218
82930666667;0.01211121
8.29394E+11;0.012119202
8.2935E+11;0.012125862
8.28478E+11;0.012131856
8.27758E+11;0.01213785
8.24922E+11;0.012143844
8.2213E+11;0.012149172
8.17549E+11;0.012155832
8.14234E+11;0.012161826
8.12882E+11;0.012168486
8.10657E+11;0.012175146
8.08868E+11;0.012181806
80738476190;0.012188466
8.05596E+11;0.012195126
8.03502E+11;0.012201786
8.01801E+11;0.01220778
8.00143E+11;0.012212442
7.98485E+11;0.012216438
7.96434E+11;0.012221766
7.94341E+11;0.012227094
79242095238;0.012232422
7.90109E+11;0.012239082
7.88407E+11;0.012246408
7.87186E+11;0.012253734
7.85354E+11;0.012260394
7.83041E+11;0.01226772
7.81078E+11;0.01227438
7.79508E+11;0.012281706
7.7737E+11;0.012289698
7.74927E+11;0.012298356
7.72353E+11;0.012307014
7.69561E+11;0.012315006
7.66769E+11;0.012322998
7.6389E+11;0.012332322
7.58829E+11;0.01234098
7.55164E+11;0.012348306
7.50889E+11;0.012355632
7.4452E+11;0.012362292
7.35446E+11;0.012368952
7.07263E+11;0.012376278
6.44267E+11;0.012384936
6.05877E+11;0.012392928
5.34766E+11;0.012402252
6.85799E+11;0.012412242
