Stress;Strain
1190987.238;0.000235764
1228505.524;0.000251748
1266023.81;0.000267066
1303542.095;0.00028305
1341060.381;0.000298368
1378578.667;0.000314352
1416096.952;0.000333
1453615.238;0.00034965
1491133.524;0.0003663
1528651.81;0.000384282
1566170.095;0.000402264
1603688.381;0.000420246
1641206.667;0.000437562
1678724.952;0.000454212
1716243.238;0.000471528
1753761.524;0.000490842
1791279.81;0.000511488
1828798.095;0.0005328
1866316.381;0.00055278
1903834.667;0.000574092
1941352.952;0.000596736
1978871.238;0.000620712
2016389.524;0.000643356
2053907.81;0.000667998
2091426.095;0.000691308
2128944.381;0.000711954
2166462.667;0.000730602
2203980.952;0.000749916
2241499.238;0.000769896
2279017.524;0.000791874
2316535.81;0.000815184
2354054.095;0.000839826
2391572.381;0.000864468
2429090.667;0.00088911
2466608.952;0.00091242
2504127.238;0.000936396
2541645.524;0.000961704
2579163.81;0.000986346
2616682.095;0.001010322
2654200.381;0.001034964
2691718.667;0.001060272
2729236.952;0.001086246
2766755.238;0.001114218
2804273.524;0.001140858
2841791.81;0.001167498
2879310.095;0.001194804
2916828.381;0.001221444
2954346.667;0.001246752
2991864.952;0.001270062
3029383.238;0.00129204
3066901.524;0.001312686
3104419.81;0.001335996
3141938.095;0.001360638
3179456.381;0.001384614
3216974.667;0.00140859
3254492.952;0.001430568
3292011.238;0.00145188
3329529.524;0.00147186
3367047.81;0.001489842
3404566.095;0.001507158
3442084.381;0.001523142
3479602.667;0.001539126
3517120.952;0.001555776
3554639.238;0.00157176
3592157.524;0.00158841
3629675.81;0.001603728
3667194.095;0.001620378
3704712.381;0.001636362
3742230.667;0.001653012
3779748.952;0.001670328
3817267.238;0.001687644
3854785.524;0.001705626
3892303.81;0.001722276
3929822.095;0.001739592
3967340.381;0.001757574
4004858.667;0.00177489
4042376.952;0.001790874
4079895.238;0.00180486
4117413.524;0.001818846
4154931.81;0.001833498
4192450.095;0.001846818
4229968.381;0.001860138
4267486.667;0.001872792
4305004.952;0.001887444
4342523.238;0.001904094
4380041.524;0.00192141
4417559.81;0.001938726
4455078.095;0.001955376
4492596.381;0.00197136
4530114.667;0.001987344
4567632.952;0.002003994
4605151.238;0.002023308
4642669.524;0.002042622
4680187.81;0.002062602
4717706.095;0.002080584
4755224.381;0.002098566
4792742.667;0.00211788
4830260.952;0.00213786
4867779.238;0.00215784
4905297.524;0.002176488
4942815.81;0.002195136
4980334.095;0.002215782
5017852.381;0.002238426
5055370.667;0.002262402
5092888.952;0.002287044
5130407.238;0.00231102
5167925.524;0.002334996
5205443.81;0.002358972
5242962.095;0.002380284
5280480.381;0.002400264
5317998.667;0.002418912
5355516.952;0.00243756
5393035.238;0.002456874
5430553.524;0.00247752
5468071.81;0.002499498
5505590.095;0.002522142
5543108.381;0.002545452
5580626.667;0.002568096
5618144.952;0.00259074
5655663.238;0.002614716
5693181.524;0.002638692
5730699.81;0.002662002
5768218.095;0.002684646
5805736.381;0.00270729
5843254.667;0.002729934
5880772.952;0.002751246
5918291.238;0.002773224
5955809.524;0.002795868
5993327.81;0.002819178
6030846.095;0.002842488
6068364.381;0.002867796
6105882.667;0.002892438
6143400.952;0.002915082
6180919.238;0.002938392
6218437.524;0.002959704
6255955.81;0.002981016
6293474.095;0.003002994
6330992.381;0.00302697
6368510.667;0.00305028
6406028.952;0.003071592
6443547.238;0.003091572
6481065.524;0.003112884
6518583.81;0.003134196
6556102.095;0.00315351
6593620.381;0.00317349
6631138.667;0.00319347
6668656.952;0.003212118
6706175.238;0.003228768
6743693.524;0.003244086
6781211.81;0.003259404
6818730.095;0.003276054
6856248.381;0.00329337
6893766.667;0.003310686
6931284.952;0.003328002
6968803.238;0.003344652
7006321.524;0.003361302
7043839.81;0.003378618
7081358.095;0.003395934
7118876.381;0.003413916
7156394.667;0.003431232
7193912.952;0.003447216
7231431.238;0.003462534
7268949.524;0.003475188
7306467.81;0.003487176
7343986.095;0.003499164
7381504.381;0.00350982
7419022.667;0.003520476
7456540.952;0.003533796
7494059.238;0.003547116
7531577.524;0.003561102
7569095.81;0.003575088
7606614.095;0.00358974
7644132.381;0.003605724
7681650.667;0.003622374
7719168.952;0.00363969
7756687.238;0.003657006
7794205.524;0.003673656
7831723.81;0.003690972
7869242.095;0.003708288
7906760.381;0.003726936
7944278.667;0.00374625
7981796.952;0.003764232
8019315.238;0.003780882
8056833.524;0.003797532
8094351.81;0.00381618
8131870.095;0.003834162
8169388.381;0.00385281
8206906.667;0.003874122
8244424.952;0.003897432
8281943.238;0.003920076
8319461.524;0.003940722
8356979.81;0.003962034
8394498.095;0.003983346
8432016.381;0.00400266
8469534.667;0.004020642
8507052.952;0.004037958
8544571.238;0.004053942
8582089.524;0.004069926
8619607.81;0.004085244
8657126.095;0.004100562
8694644.381;0.004118544
8732162.667;0.004137192
8769680.952;0.004158504
8807199.238;0.004181148
8844717.524;0.004203126
8882235.81;0.004225104
8919754.095;0.004246416
8957272.381;0.004268394
8994790.667;0.004290372
9032308.952;0.004311018
9069827.238;0.004331664
9107345.524;0.00435231
9144863.81;0.004373622
9182382.095;0.004394934
9219900.381;0.004417578
9257418.667;0.004441554
9294936.952;0.00446553
9332455.238;0.00449217
9369973.524;0.004518144
9407491.81;0.004546116
9445010.095;0.004574088
9482528.381;0.004599396
9520046.667;0.004621374
9557564.952;0.004644684
9595083.238;0.00466866
9632601.524;0.004691304
9670119.81;0.004716612
9707638.095;0.00474192
9745156.381;0.004767228
9782674.667;0.004794534
9820192.952;0.004827168
9857711.238;0.004856472
9895229.524;0.00488178
9932747.81;0.004904424
9970266.095;0.00492507
10007784.38;0.004945716
10045302.67;0.004965696
10082820.95;0.00498501
10120339.24;0.005004324
10157857.52;0.005022306
10195375.81;0.00504162
10232894.1;0.005059602
10270412.38;0.005077584
10307930.67;0.005095566
10345448.95;0.005112216
10382967.24;0.005127534
10420485.52;0.005142852
10458003.81;0.005156838
10495522.1;0.005169492
10533040.38;0.00518148
10570558.67;0.005193468
10608076.95;0.005206122
10645595.24;0.005220774
10683113.52;0.005237424
10720631.81;0.00525474
10758150.1;0.005272722
10795668.38;0.005290038
10833186.67;0.005309352
10870704.95;0.005328
10908223.24;0.005345316
10945741.52;0.005361966
10983259.81;0.005378616
11020778.1;0.005395266
11058296.38;0.005411916
11095814.67;0.005429232
11133332.95;0.005446548
11170851.24;0.005463864
11208369.52;0.005482512
11245887.81;0.00550116
11283406.1;0.00552114
11320924.38;0.005543118
11358442.67;0.005563764
11395960.95;0.005585076
11433479.24;0.005608386
11470997.52;0.005631696
11508515.81;0.00565434
11546034.1;0.005676984
11583552.38;0.005698296
11621070.67;0.005718276
11658588.95;0.005736924
11696107.24;0.005754906
11733625.52;0.00577422
11771143.81;0.005794866
11808662.1;0.005816178
11846180.38;0.005839488
11883698.67;0.005862798
11921216.95;0.005886108
11958735.24;0.005908752
11996253.52;0.005931396
12033771.81;0.005953374
12071290.1;0.005975352
12108808.38;0.005995332
12146326.67;0.006016644
12183844.95;0.00603729
12221363.24;0.006059934
12258881.52;0.006083244
12296399.81;0.006106554
12333918.1;0.006132528
12371436.38;0.006159168
12408954.67;0.00618714
12446472.95;0.006215778
12483991.24;0.006244416
12521509.52;0.006271056
12559027.81;0.006298362
12596546.1;0.006325002
12634064.38;0.006348978
12671582.67;0.006372288
12709100.95;0.006394266
12746619.24;0.006415578
12784137.52;0.00643689
12821655.81;0.006458202
12859174.1;0.00647685
12896692.38;0.006494166
12934210.67;0.006512814
12971728.95;0.006529464
13009247.24;0.006546114
13046765.52;0.006568758
13084283.81;0.0065934
